# HEADER: Start
# TEM_PIXperUM          1.000000
# x-star                0.507823
# y-star                0.499393
# z-star                0.650841
# WorkingDistance       12.800000
# SampleTiltAngle       69.900002
# CameraElevationAngle  8.000000
# CameraAzimuthalAngle  0.000000
#
# Phase 2
# MaterialName  	Fe3 O4 (magnetite)
# Formula     	Fe3O4
# Info		
# Symmetry              43
# PointGroupID          131
# LatticeConstants      8.396 8.396 8.396  90.000  90.000  90.000
# NumberFamilies        68
# hklFamilies   	 1  3  1 1 48.487820 1
# hklFamilies   	 0  0  4 1 64.784767 1
# hklFamilies   	 5 -1  1 1 35.939339 1
# hklFamilies   	 4  0 -4 1 81.611824 1
# hklFamilies   	 5  1  3 0 6.123431 0
# hklFamilies   	 3 -3 -5 0 25.184980 0
# hklFamilies   	 4 -4  4 1 36.525009 1
# hklFamilies   	 5  5 -1 0 7.500518 0
# hklFamilies   	 1 -3 -7 0 18.610264 0
# hklFamilies   	 5  3  5 0 23.204176 0
# hklFamilies   	 5  1  7 0 17.982109 0
# hklFamilies   	 4 -8  0 0 25.447332 0
# hklFamilies   	 9  1  3 0 17.432150 0
# hklFamilies   	 4  8  4 0 40.045734 0
# hklFamilies   	 9 -1  5 0 16.881044 0
# hklFamilies   	 3  7  7 0 11.201684 0
# hklFamilies   	 1 11  1 0 11.360274 0
# hklFamilies   	 7  7 -5 0 11.430936 0
# hklFamilies   	 3  3 11 0 9.236874 0
# hklFamilies   	 9  7 -3 0 11.516439 0
# hklFamilies   	 4 -8 -8 0 15.566026 0
# hklFamilies   	 2 -2 -12 0 6.342265 0
# hklFamilies   	 5  7  9 0 11.559656 0
# hklFamilies   	 3 11 -5 0 9.574183 0
# hklFamilies   	 4 -12  0 0 26.447931 0
# hklFamilies   	 9  9  3 0 11.554890 0
# hklFamilies   	11 -1  7 0 7.908184 0
# hklFamilies   	13  1 -1 0 11.607366 0
# hklFamilies   	11  5  5 0 9.678980 0
# hklFamilies   	13  3 -3 0 9.913795 0
# hklFamilies   	 9  9 -5 0 11.551975 0
# hklFamilies   	 5 13  3 0 9.999634 0
# hklFamilies   	 9 11  1 0 8.420422 0
# hklFamilies   	 0 12  8 0 11.106129 0
# hklFamilies   	 7 13  1 0 8.629102 0
# hklFamilies   	 5 13 -5 0 10.062879 0
# hklFamilies   	 8 -12  4 0 19.437395 0
# hklFamilies   	 1 -3 -15 0 6.048299 0
# hklFamilies   	13  9 -1 0 8.904757 0
# hklFamilies   	11  9 -7 0 6.446234 0
# hklFamilies   	 1 15  5 0 6.337497 0
# hklFamilies   	 7 -7 -13 0 6.718379 0
# hklFamilies   	 8 12 -8 0 8.545695 0
# hklFamilies   	 0 16 -4 0 8.533780 0
# hklFamilies   	 9  9 11 0 6.754569 0
# hklFamilies   	16  4 -4 0 15.387024 0
# hklFamilies   	13  7  9 0 7.006807 0
# hklFamilies   	 1  3 17 0 7.098454 0
# hklFamilies   	 3 -13 -11 0 6.046960 0
# hklFamilies   	 1 -5 -17 0 7.254976 0
# hklFamilies   	 5 11 13 0 6.188483 0
# hklFamilies   	 9 -13 -9 0 7.386989 0
# hklFamilies   	 4 -16 -8 0 6.911431 0
# hklFamilies   	13  3 13 0 6.560152 0
# hklFamilies   	 3 -7 -17 0 5.761567 0
# hklFamilies   	12 12  8 0 12.739739 0
# hklFamilies   	 5 -13 -13 0 6.779952 0
# hklFamilies   	17  7  5 0 5.903390 0
# hklFamilies   	17  9  3 0 6.078922 0
# hklFamilies   	17  9 -5 0 6.260585 0
# hklFamilies   	16 12  0 0 5.796182 0
# hklFamilies   	16 -12 -4 0 10.842139 0
# hklFamilies   	 4 -20  0 0 10.826274 0
# hklFamilies   	20 -8 -4 0 9.417377 0
# hklFamilies   	16 12 12 0 8.378285 0
# hklFamilies   	 0 -12 20 0 8.366597 0
# hklFamilies   	20 12  8 0 7.521081 0
# hklFamilies   	20  4 -16 0 6.828470 0
# Phase 1
# MaterialName  	Fe2 O3 (hematite)
# Formula     	Fe2O3
# Info		
# Symmetry              32
# PointGroupID          119
# LatticeConstants      5.038 5.038 13.772  90.000  90.000 120.000
# NumberFamilies        90
# hklFamilies   	 1 -1  2 1 157.790100 1
# hklFamilies   	 0 -1  4 1 106.506065 1
# hklFamilies   	 1  1  0 1 50.540974 1
# hklFamilies   	 0  0  6 1 87.885452 1
# hklFamilies   	 2  0  2 0 18.418739 0
# hklFamilies   	 1 -2  6 1 31.332167 1
# hklFamilies   	 1 -1  8 1 31.089499 1
# hklFamilies   	 1 -3  4 1 10.948210 1
# hklFamilies   	-1  1  9 1 0.000000 1
# hklFamilies   	 3  0  6 0 13.117822 0
# hklFamilies   	 3  1 -1 0 8.869303 0
# hklFamilies   	 1  3 -2 0 17.577864 0
# hklFamilies   	 2 -2 10 0 15.683733 0
# hklFamilies   	 3 -4  4 1 14.324367 1
# hklFamilies   	 4 -1  5 0 9.099824 0
# hklFamilies   	 2 -4  6 1 13.897776 1
# hklFamilies   	 4 -3  7 0 12.877160 0
# hklFamilies   	 3 -2 11 0 11.369676 0
# hklFamilies   	 2  3  2 0 25.856014 0
# hklFamilies   	 4 -1  8 0 11.422049 0
# hklFamilies   	 2 -4  9 0 23.388693 0
# hklFamilies   	 5 -2  4 0 18.855370 0
# hklFamilies   	 1 -1 14 0 13.660304 0
# hklFamilies   	 3 -5  5 0 28.944229 0
# hklFamilies   	 4  1 -3 0 14.611187 0
# hklFamilies   	 5 -2  7 0 33.079094 0
# hklFamilies   	 1 -3 13 0 18.354258 0
# hklFamilies   	 4 -5  6 0 12.736190 0
# hklFamilies   	 4 -1 11 0 22.306412 0
# hklFamilies   	 3 -5  8 0 11.371652 0
# hklFamilies   	 2 -1 15 0 11.097194 0
# hklFamilies   	 0 -4 10 0 14.399545 0
# hklFamilies   	 1  0 16 0 15.413112 0
# hklFamilies   	 3  3 -3 0 18.308767 0
# hklFamilies   	 2  4 -2 0 11.719689 0
# hklFamilies   	 5 -4  9 0 13.502418 0
# hklFamilies   	 5 -1  9 0 21.128054 0
# hklFamilies   	 4  2 -4 0 16.330980 0
# hklFamilies   	 4 -3 13 0 14.456058 0
# hklFamilies   	 2  4 -5 0 17.810877 0
# hklFamilies   	 3 -6  6 0 12.470905 0
# hklFamilies   	 3 -5 11 0 25.909063 0
# hklFamilies   	 4 -6  7 0 20.877670 0
# hklFamilies   	 4 -2 15 0 24.400408 0
# hklFamilies   	 3 -6  9 0 29.136747 0
# hklFamilies   	 1 -2 18 0 9.221495 0
# hklFamilies   	 5 -2 13 1 27.245335 1
# hklFamilies   	 3 -2 17 0 16.527374 0
# hklFamilies   	 4  3 -2 0 13.926868 0
# hklFamilies   	 4  3 -5 0 9.863504 0
# hklFamilies   	 6 -6  6 0 11.972542 0
# hklFamilies   	 6 -2 11 0 22.795803 0
# hklFamilies   	 1 -1 20 0 16.249098 0
# hklFamilies   	 7 -3  7 0 11.837536 0
# hklFamilies   	 1 -4 17 0 14.266629 0
# hklFamilies   	 3 -1 19 0 12.870922 0
# hklFamilies   	 1 -5 15 0 13.949041 0
# hklFamilies   	 7 -6  4 0 11.644971 0
# hklFamilies   	 4 -6 13 0 14.311651 0
# hklFamilies   	 1 -6 13 0 10.646274 0
# hklFamilies   	 5 -3 17 0 13.706673 0
# hklFamilies   	 4 -7 11 0 12.424841 0
# hklFamilies   	 3 -4 19 0 10.638886 0
# hklFamilies   	 7  0 -2 0 18.977266 0
# hklFamilies   	 6 -3 15 0 14.582968 0
# hklFamilies   	 0  7 -4 0 10.459456 0
# hklFamilies   	 7 -3 13 0 9.724872 0
# hklFamilies   	 5 -2 19 0 9.557336 0
# hklFamilies   	 7 -7  8 0 15.876781 0
# hklFamilies   	 7  1  0 0 16.300657 0
# hklFamilies   	 6 -2 17 0 10.276116 0
# hklFamilies   	 8 -7  6 0 13.940463 0
# hklFamilies   	 7  1  6 0 10.419029 0
# hklFamilies   	 0 -8  2 0 18.927305 0
# hklFamilies   	 8 -8  4 0 18.878284 0
# hklFamilies   	 7  2  2 0 9.543554 0
# hklFamilies   	 8  1 -2 0 14.687346 0
# hklFamilies   	 8  1  4 0 13.926228 0
# hklFamilies   	 9 -4 13 0 9.859363 0
# hklFamilies   	 0  9  0 1 15.454309 1
# hklFamilies   	 5 -10  9 0 10.473602 0
# hklFamilies   	 0  9 -6 0 9.798000 0
# hklFamilies   	10 -4 11 0 11.363526 0
# hklFamilies   	 7 -7 20 0 13.104996 0
# hklFamilies   	 5 -10 15 0 11.094717 0
# hklFamilies   	 6 -11 11 0 9.798844 0
# hklFamilies   	10 -4 17 0 8.785439 0
# hklFamilies   	11 -5 13 0 10.172091 0
# hklFamilies   	10 -13 11 0 8.944238 0
# hklFamilies   	 2  1 10 1 0.000000 1
# GRID: SqrGrid
# XSTEP: 0.400000
# YSTEP: 0.400000
# NCOLS_ODD: 31
# NCOLS_EVEN: 31
# NROWS: 31
#
# OPERATOR: 	
#
# SAMPLEID: 	
#
# SCANID: 	
#
# VERSION 7
# NOTES: Start
# Version 1: phi1, PHI, phi2, x, y, iq (x*=0.1 & y*=0.1)
# Version 2: phi1, PHI, phi2, x, y, iq, ci
# Version 3: phi1, PHI, phi2, x, y, iq, ci, phase
# Version 4: phi1, PHI, phi2, x, y, iq, ci, phase, sem
# Version 5: phi1, PHI, phi2, x, y, iq, ci, phase, sem, fit
# Version 6: phi1, PHI, phi2, x, y, iq, ci, phase, sem, fit, PRIAS Bottom Strip, PRIAS Center Square, PRIAS Top Strip, Custom Value
# Version 7: phi1, PHI, phi2, x, y, iq, ci, phase, sem, fit. PRIAS, Custom, EDS and CMV values included if valid
# Phase index: 0 for single phase, starting at 1 for multiphase
# CMV = Correlative Microscopy value
# EDS = cumulative counts over a specific range of energies
# SEM = any external detector signal but usually the secondary electron detector signal
# NOTES: End
# COLUMN_COUNT: 13
# COLUMN_HEADERS: phi1, PHI, phi2, x, y, IQ, CI, Phase index, SEM, Fit, PRIAS Bottom Strip, PRIAS Center Square, PRIAS Top Strip
# COLUMN_UNITS: radians, radians, radians, microns, microns, , , , , degrees, , , 
# COLUMN_NOTES: Start
# Column 1: phi1 [radians]
# Column 2: PHI [radians]
# Column 3: phi2 [radians]
# Column 4: x [microns]
# Column 5: y [microns]
# Column 6: IQ
# Column 7: CI
# Column 8: Phase index
# Column 9: SEM
# Column 10: Fit [degrees]
# Column 11: PRIAS Bottom Strip
# Column 12: PRIAS Center Square
# Column 13: PRIAS Top Strip
# COLUMN_NOTES: End
# HEADER: End
  0.10830   2.85595   4.95066      0.00000      0.00000 5220.6  0.714  1   1208  0.648 1225.293945 1984.824829 1306.348999
  0.11085   2.85825   4.95498      0.40000      0.00000 6231.2  0.714  1   7989  0.544 1214.257568 1935.743774 1292.601685
  0.11439   2.84763   4.95956      0.80000      0.00000 6621.9  0.714  1   9656  0.561 1240.455200 1922.516235 1286.818848
  0.10686   2.85412   4.95936      1.20000      0.00000 6084.5  0.800  1   8764  0.573 1239.804810 1912.041016 1281.074219
  3.24139   0.29210   4.47430      1.60000      0.00000 5235.8  0.343  1   8356  0.828 1210.347046 1965.189087 1280.248291
  3.27040   0.28706   4.44479      2.00000      0.00000 4053.2  0.343  1  10799  0.822 1173.342651 2009.842285 1277.773926
  3.27040   0.28706   4.44479      2.40000      0.00000 3304.8  0.343  1   8198  1.861 1181.435669 2075.288086 1277.711914
  5.10512   0.44839   3.67447      2.80000      0.00000 3454.0  0.229  1   3286  1.415 1260.566162 2086.785400 1287.824219
  0.18651   1.73240   4.80633      3.20000      0.00000 3954.3  0.314  1  12559  1.375 1312.015137 2096.203613 1290.668945
  3.32292   1.41451   0.42805      3.60000      0.00000 4439.1  0.457  1  11200  1.230 1328.235229 2098.366699 1289.832153
  0.17299   1.73088   4.80658      4.00000      0.00000 5091.9  0.400  1   9621  1.163 1323.340210 2103.152100 1293.046143
  3.32275   1.40154   0.42885      4.40000      0.00000 5262.2  0.457  1  10672  1.177 1323.536011 2080.310059 1299.269043
  3.32012   1.39604   0.43196      4.80000      0.00000 5269.8  0.600  1  10324  0.853 1314.515137 2079.048828 1297.512573
  3.32377   1.39283   0.43440      5.20000      0.00000 5537.8  0.800  1   9633  0.499 1307.277222 2078.685303 1294.796265
  3.31880   1.39358   0.43094      5.60000      0.00000 5499.0  0.629  1   9173  0.465 1285.119751 2107.900635 1289.981567
  3.31657   1.39056   0.43044      6.00000      0.00000 5152.4  0.743  1   9482  0.586 1269.993774 2106.645752 1291.145020
  0.18565   1.75643   4.81706      6.40000      0.00000 4306.8  0.171  1  10903  1.659 1223.659180 2072.910156 1285.932861
  0.43037   0.30822   1.67761      6.80000      0.00000 3782.7  0.429  1   8909  1.876 1208.981567 2010.343384 1281.688354
  0.43037   0.30822   1.67761      7.20000      0.00000 5045.1  0.429  1   6664  0.724 1214.995361 1947.906006 1284.027710
  0.45171   0.30526   1.65409      7.60000      0.00000 5758.5  0.686  1  10953  0.707 1245.165405 1955.620117 1288.230469
  0.42528   0.31467   1.68340      8.00000      0.00000 5856.0  0.429  1  10648  0.796 1266.617676 1957.939331 1290.410400
  0.43840   0.30807   1.66896      8.40000      0.00000 5709.5  0.429  1  10604  0.619 1284.933838 1962.056885 1289.362427
  0.43117   0.31424   1.67679      8.80000      0.00000 5266.9  0.286  1  10981  1.002 1320.993286 1957.390747 1287.830688
  0.43825   0.31638   1.66970      9.20000      0.00000 4071.1  0.171  1  11530  1.413 1348.250610 1972.476318 1292.171875
  0.43825   0.31638   1.66970      9.60000      0.00000 2767.8  0.171  1  12205  1.430 1399.329102 2026.416382 1298.778809
  1.87610   1.49659   4.75849     10.00000      0.00000 2789.1  0.171  1   5058  1.532 1362.067871 2054.142090 1304.628906
  1.81417   2.56680   3.41932     10.40000      0.00000 2927.4  0.314  1   6516  1.712 1312.447510 2087.492432 1295.518921
  1.81417   2.56680   3.41932     10.80000      0.00000 4376.8  0.314  1  13420  1.127 1224.922119 2112.019043 1282.415771
  4.97197   0.59527   5.99195     11.20000      0.00000 5278.6  0.257  1   2873  1.059 1184.120728 2100.258789 1269.549438
  1.84022   2.53613   3.44368     11.60000      0.00000 5768.1  0.314  1   7865  1.286 1214.843384 2074.169189 1272.429077
  1.84191   2.52771   3.44964     12.00000      0.00000 5150.3  0.114  1   7601  1.655 1255.721069 2058.700195 1284.911743
  0.09884   2.85647   4.94545      0.00000      0.40000 5773.4  0.429  1    805  0.315 1200.251343 1965.701538 1304.394287
  0.10447   2.86142   4.95182      0.40000      0.40000 6925.5  0.429  1   5379  0.403 1192.349487 1922.487671 1289.982910
  0.10674   2.84906   4.95224      0.80000      0.40000 7392.4  0.686  1  12028  0.556 1232.198608 1912.451416 1288.290527
  0.10505   2.85018   4.95484      1.20000      0.40000 6944.0  0.686  1  10594  0.434 1246.370117 1914.220337 1280.644287
  3.26178   0.28987   4.45623      1.60000      0.40000 6248.5  0.400  1  11176  0.844 1241.891357 1955.320068 1282.834595
  0.10562   2.85488   4.94831      2.00000      0.40000 5338.4  0.371  1  11946  0.924 1227.071045 1989.030640 1278.906738
  0.10562   2.85488   4.94831      2.40000      0.40000 4021.4  0.371  1  13646  2.128 1233.843018 2055.697998 1285.767700
  0.18623   1.73751   4.80717      2.80000      0.40000 3813.4  0.429  1   8229  1.603 1271.630005 2083.075439 1290.889282
  0.18623   1.73751   4.80717      3.20000      0.40000 4557.6  0.429  1   6754  0.854 1295.591431 2101.341553 1288.199097
  0.18615   1.73192   4.80417      3.60000      0.40000 5081.5  0.400  1   7817  0.784 1295.160767 2111.667480 1280.117310
  0.18004   1.73353   4.80455      4.00000      0.40000 5644.9  0.457  1   8997  0.769 1281.938965 2124.942627 1277.188110
  0.17588   1.74431   4.80250      4.40000      0.40000 5763.0  0.257  1   8511  1.162 1284.569336 2108.262451 1284.552490
  0.17980   1.74291   4.80427      4.80000      0.40000 5692.7  0.714  1   9498  0.886 1285.822632 2097.719971 1284.698975
  3.32362   1.39169   0.43455      5.20000      0.40000 5951.9  0.714  1   9826  0.519 1280.849243 2092.813965 1283.567383
  0.17907   1.74774   4.80484      5.60000      0.40000 5907.2  0.714  1   9614  0.601 1262.759644 2109.563721 1278.605103
  3.32239   1.39591   0.42998      6.00000      0.40000 5517.8  0.800  1   8726  0.566 1254.290649 2127.411865 1279.395264
  0.17989   1.74546   4.80901      6.40000      0.40000 4577.5  0.686  1   8635  1.100 1216.662964 2100.985352 1275.546265
  0.17989   1.74546   4.80901      6.80000      0.40000 3928.4  0.686  1  13386  1.900 1202.829712 2047.108154 1271.169556
  0.43749   0.30879   1.67184      7.20000      0.40000 4634.2  0.429  1   7072  0.807 1194.482422 1973.221436 1272.301758
  0.43537   0.30582   1.67454      7.60000      0.40000 5216.4  0.429  1   9102  0.680 1211.189819 1975.016846 1272.572144
  0.43079   0.30824   1.67625      8.00000      0.40000 5387.1  0.429  1   8878  0.586 1228.354614 1977.787598 1273.452026
  0.43322   0.30644   1.67750      8.40000      0.40000 5213.4  0.457  1  10206  0.642 1245.400513 1969.983765 1273.415405
  3.57689   2.83342   1.46618      8.80000      0.40000 4657.1  0.171  1  10546  1.308 1287.085083 1962.306274 1278.931885
  4.72635   0.57930   2.82896      9.20000      0.40000 3673.7  0.171  1  11024  1.550 1333.106323 1972.777710 1292.380737
  1.87610   1.49659   4.75849      9.60000      0.40000 2663.9  0.171  1  14518  1.770 1386.093628 2026.457520 1297.417480
  1.87610   1.49659   4.75849     10.00000      0.40000 2663.0  0.171  1   6481  1.733 1352.564941 2049.846680 1301.876221
  4.95517   0.59019   1.82581     10.40000      0.40000 3702.2  0.286  1   5139  1.040 1307.368652 2067.321289 1290.329224
  1.80871   2.56462   3.41242     10.80000      0.40000 5280.0  0.343  1  16075  1.089 1255.854126 2074.864990 1283.641602
  4.97481   0.60542   1.79893     11.20000      0.40000 6617.7  0.343  1  21994  1.161 1255.740112 2074.344482 1276.480591
  1.84022   2.53613   3.44368     11.60000      0.40000 6752.4  0.286  1  11919  1.286 1229.079956 2073.811279 1271.192383
  1.83735   2.54090   3.44052     12.00000      0.40000 6024.0  0.286  1   4448  1.082 1247.132202 2065.341064 1281.834351
  0.10159   2.85621   4.94937      0.00000      0.80000 5888.0  0.429  1   8455  0.418 1228.632324 1960.408936 1308.046265
  0.09817   2.85665   4.94428      0.40000      0.80000 7131.8  0.429  1  14760  0.314 1227.830444 1940.361206 1291.025024
  0.10656   2.85523   4.95563      0.80000      0.80000 7367.7  0.429  1   8869  0.326 1265.304565 1923.704712 1294.073730
  0.10674   2.85525   4.95629      1.20000      0.80000 7073.1  0.714  1  10853  0.501 1286.706665 1937.811523 1290.184814
  0.09586   2.85520   4.94869      1.60000      0.80000 6599.8  0.686  1  10844  0.571 1298.778442 1953.098022 1297.013672
  3.23377   0.28668   4.48145      2.00000      0.80000 5903.7  0.429  1  11295  0.830 1303.691895 1983.395508 1289.659546
  0.07591   2.85187   4.92625      2.40000      0.80000 4595.2  0.286  1   9403  1.006 1303.069214 2036.031250 1290.841919
  3.32953   1.40395   0.43183      2.80000      0.80000 3845.2  0.371  1   9969  1.593 1315.922241 2071.698242 1291.039185
  3.32953   1.40395   0.43183      3.20000      0.80000 4507.3  0.371  1   6846  0.865 1314.611938 2101.030273 1284.205200
  3.32157   1.40055   0.43369      3.60000      0.80000 4904.1  0.714  1   8460  0.470 1293.185913 2115.412354 1280.656250
  3.32179   1.40118   0.43170      4.00000      0.80000 5025.9  0.714  1   8406  0.500 1260.911987 2114.491699 1277.647583
  0.17668   1.74510   4.80275      4.40000      0.80000 5026.2  0.714  1   9281  0.686 1248.775024 2107.383057 1283.344482
  3.32621   1.39927   0.43127      4.80000      0.80000 5206.2  0.543  1   9378  0.688 1254.061035 2077.815918 1279.438232
  3.32920   1.39386   0.43319      5.20000      0.80000 5622.7  0.886  1   8409  0.537 1240.178345 2077.888184 1279.015625
  3.32659   1.40180   0.43063      5.60000      0.80000 5449.1  0.714  1   8783  0.570 1232.584473 2091.150879 1272.211182
  3.32035   1.39776   0.43018      6.00000      0.80000 5374.0  0.457  1   8624  1.107 1210.423584 2113.696045 1273.098633
  0.17781   1.73777   4.81315      6.40000      0.80000 3955.7  0.400  1   7328  1.022 1186.519775 2119.033691 1264.818237
  0.17781   1.73777   4.81315      6.80000      0.80000 2892.6  0.400  1  10523  1.566 1187.594482 2083.735107 1264.283936
  0.43749   0.30879   1.67184      7.20000      0.80000 2993.4  0.429  1  13174  1.752 1173.844727 2021.481079 1265.544922
  0.43537   0.30582   1.67454      7.60000      0.80000 3800.0  0.429  1   7572  1.860 1191.177734 2017.835571 1267.042358
  1.27854   1.84025   2.84707      8.00000      0.80000 3950.2  0.629  1   6908  1.771 1199.996704 2014.983887 1272.551880
  4.41770   1.29398   0.31317      8.40000      0.80000 4163.5  0.514  1   6768  0.915 1218.536743 2037.750366 1268.375977
  4.41177   1.29161   0.31343      8.80000      0.80000 4195.4  0.657  1   7324  0.686 1273.660400 2010.955688 1278.115723
  1.27396   1.84509   4.92596      9.20000      0.80000 3420.1  0.400  1  11393  1.203 1346.673218 2015.538330 1298.122437
  5.66376   1.89512   6.20763      9.60000      0.80000 2725.3  0.114  1  14694  1.464 1405.397583 2046.034668 1306.452271
  6.17877   2.91370   6.09714     10.00000      0.80000 2920.3  0.286  1  12013  1.791 1380.225464 2079.836426 1312.206421
  1.81946   2.54770   3.42001     10.40000      0.80000 3533.9  0.343  1   5848  1.568 1328.801758 2070.684082 1298.639771
  1.81946   2.54770   3.42001     10.80000      0.80000 4935.0  0.343  1   8822  1.200 1304.749756 2071.489258 1289.412964
  4.97095   0.61568   1.79761     11.20000      0.80000 6068.9  0.229  1   8279  1.259 1279.875122 2065.120605 1279.653931
  1.83441   2.54045   3.43555     11.60000      0.80000 5910.0  0.286  1  10136  1.040 1248.703979 2085.830811 1272.104614
  1.84305   2.54367   3.43682     12.00000      0.80000 5167.7  0.314  1   5912  0.869 1253.705811 2080.239990 1280.151733
  0.07465   2.85587   4.92470      0.00000      1.20000 5849.0  0.714  1  12309  0.724 1303.728394 1962.108276 1312.385986
  0.09199   2.85712   4.93808      0.40000      1.20000 7104.0  0.429  1   7322  0.327 1279.663208 1956.438477 1298.185791
  0.08537   2.85581   4.93799      0.80000      1.20000 7091.0  0.429  1   5919  0.450 1286.860962 1945.435669 1298.412476
  0.10646   2.85321   4.95651      1.20000      1.20000 7081.8  0.657  1   7299  0.522 1296.878906 1948.941650 1290.141479
  0.09126   2.85061   4.94644      1.60000      1.20000 6701.3  0.686  1   8301  0.465 1315.607422 1936.890259 1296.105225
  0.09734   2.86042   4.94856      2.00000      1.20000 6182.0  0.514  1   8863  0.866 1322.822998 1958.303223 1290.048950
  0.09481   2.85115   4.94493      2.40000      1.20000 4893.1  0.286  1   8145  1.155 1319.133057 2010.744141 1294.890869
  0.09481   2.85115   4.94493      2.80000      1.20000 3966.6  0.286  1   7953  1.700 1310.752441 2049.650879 1289.647705
  3.33102   1.41330   0.41558      3.20000      1.20000 3781.9  0.114  1   8239  1.743 1290.343140 2079.917480 1279.781860
  3.32157   1.40055   0.43369      3.60000      1.20000 3995.2  0.714  1   8555  1.375 1255.268555 2088.609375 1273.457886
  3.31109   1.39534   0.42938      4.00000      1.20000 4155.3  0.457  1   8231  1.113 1219.221313 2105.274658 1267.953735
  0.18170   1.75116   4.80651      4.40000      1.20000 4308.5  0.600  1   7097  0.866 1199.853027 2106.167236 1275.198730
  0.19224   1.74153   4.80537      4.80000      1.20000 4409.7  0.543  1   7214  0.833 1209.643799 2086.014893 1269.435547
  0.19536   1.73254   4.80216      5.20000      1.20000 4751.4  0.714  1   7765  0.745 1200.708618 2084.442871 1271.598755
  3.32633   1.40470   0.42908      5.60000      1.20000 4780.1  0.457  1   8046  1.086 1185.406982 2081.115234 1265.582275
  0.17144   1.73824   4.80643      6.00000      1.20000 4332.5  0.286  1   6347  0.890 1174.070557 2133.886719 1263.148682
  0.17781   1.73777   4.81315      6.40000      1.20000 2886.1  0.400  1   5360  1.856 1159.119873 2150.724121 1259.489258
  6.20855   2.92582   0.87628      6.80000      1.20000 2351.4  0.257  1   7523  1.920 1174.180054 2148.009521 1263.080688
  1.27744   1.84549   2.83573      7.20000      1.20000 2826.1  0.229  1   8417  1.837 1162.224609 2106.114746 1265.864258
  1.27744   1.84549   2.83573      7.60000      1.20000 3045.8  0.229  1   8613  1.319 1159.084717 2096.535400 1261.386475
  1.27854   1.84025   2.84707      8.00000      1.20000 3327.4  0.629  1   6903  0.693 1137.380127 2087.413086 1253.688599
  1.27854   1.84025   2.84707      8.40000      1.20000 3332.9  0.629  1   4480  1.053 1166.781006 2088.965576 1255.481689
  1.27974   1.84211   4.93146      8.80000      1.20000 3288.5  0.514  1   5413  0.813 1240.375732 2077.934814 1272.760742
  1.91877   2.60558   5.06027      9.20000      1.20000 3403.1  0.286  1  15075  1.655 1332.011841 2094.552246 1300.080933
  6.19182   2.91666   6.10757      9.60000      1.20000 3789.0  0.400  1  13059  1.311 1380.656128 2109.172852 1310.447754
  6.17877   2.91370   6.09714     10.00000      1.20000 3770.1  0.286  1  14098  1.114 1386.703003 2100.722900 1317.883179
  6.20212   2.91125   4.02808     10.40000      1.20000 3395.2  0.600  1  11037  1.982 1341.448853 2073.851563 1301.284668
  6.10999   2.95580   0.02639     10.80000      1.20000 3887.9  0.229  1   9947  1.614 1311.577393 2067.728271 1290.002075
  1.84398   2.55049   3.43459     11.20000      1.20000 4030.7  0.343  1   6134  1.280 1279.450317 2089.407715 1275.237061
  1.84398   2.55049   3.43459     11.60000      1.20000 4628.6  0.343  1   6920  0.854 1269.462402 2109.778320 1273.863037
  1.84184   2.55938   3.42464     12.00000      1.20000 3905.9  0.286  1   7804  1.126 1280.051392 2107.296387 1282.682251
  0.07407   2.85403   4.92643      0.00000      1.60000 5461.4  0.343  1  10004  1.005 1313.770142 1997.008545 1310.836914
  0.10243   2.85686   4.94864      0.40000      1.60000 6586.6  0.429  1   7501  0.421 1282.999146 1985.688843 1292.958252
  0.08537   2.85581   4.93799      0.80000      1.60000 6894.4  0.714  1   7628  0.611 1281.930542 1964.943481 1286.390503
  0.09305   2.85458   4.94705      1.20000      1.60000 6713.1  0.686  1   7149  0.596 1267.606812 1951.271851 1279.372192
  0.09440   2.85565   4.94752      1.60000      1.60000 6408.5  0.714  1   8686  0.622 1274.588867 1939.756226 1287.105103
  0.09925   2.85749   4.95570      2.00000      1.60000 5776.7  0.714  1  11306  0.749 1278.985718 1962.746826 1282.345947
  0.09925   2.85749   4.95570      2.40000      1.60000 4624.5  0.714  1   7835  1.336 1273.072021 2008.627075 1282.526733
  3.22085   2.17889   0.59924      2.80000      1.60000 3504.8  0.086  1   9046  1.765 1270.311523 2031.609009 1274.800171
  3.48373   2.31919   0.63350      3.20000      1.60000 3522.3  0.171  1   9031  1.817 1245.289307 2059.559570 1268.514038
  3.47838   2.31764   0.62808      3.60000      1.60000 3649.2  0.200  1   8290  1.922 1217.277588 2061.180664 1267.794678
  2.86146   1.49675   1.52974      4.00000      1.60000 3658.1  0.114  1   7695  1.917 1180.572021 2086.289795 1267.900513
  0.18170   1.75116   4.80651      4.40000      1.60000 3520.4  0.600  1   7788  1.801 1145.690308 2082.398193 1272.201050
  3.32302   1.40317   0.42710      4.80000      1.60000 3544.8  0.457  1   4882  1.211 1141.777954 2082.602295 1262.409180
  3.33284   1.40301   0.42821      5.20000      1.60000 3787.3  0.600  1   1813  0.862 1127.677002 2086.345215 1264.417969
  3.33554   1.40255   0.42632      5.60000      1.60000 3919.1  0.171  1   2941  1.438 1093.771362 2093.205322 1257.911255
  0.17144   1.73824   4.80643      6.00000      1.60000 3385.9  0.286  1   4053  1.511 1068.125244 2150.152832 1254.461548
  6.20855   2.92582   0.87628      6.40000      1.60000 2203.3  0.257  1   2317  1.892 1081.846802 2186.563721 1252.781982
  6.20855   2.92582   0.87628      6.80000      1.60000 2873.5  0.257  1   8755  1.218 1168.927612 2189.468506 1271.006226
  3.06536   0.22785   4.34781      7.20000      1.60000 3173.2  0.400  1  12784  1.593 1151.054688 2162.765869 1273.758179
  3.06413   0.23064   4.34801      7.60000      1.60000 3193.8  0.514  1  10574  1.662 1142.874512 2158.133301 1272.028076
  3.04619   0.22314   4.36910      8.00000      1.60000 2725.4  0.114  1  11857  1.815 1074.144165 2162.000000 1255.722534
  6.16914   2.90921   3.98838      8.40000      1.60000 2791.3  0.257  1   2843  1.637 1122.954834 2189.206787 1253.360229
  6.17236   2.91460   3.99008      8.80000      1.60000 3958.7  0.171  1  13463  1.301 1255.736206 2174.816406 1273.239380
  6.16155   2.91268   3.98145      9.20000      1.60000 5073.4  0.714  1  12254  0.741 1342.232910 2165.704834 1292.271240
  6.17347   2.91074   3.99413      9.60000      1.60000 5596.5  0.686  1   9430  0.857 1375.152710 2161.838135 1303.007813
  6.18748   2.91295   4.00954     10.00000      1.60000 5277.5  0.714  1  10012  0.610 1384.012207 2139.590088 1307.995605
  6.20212   2.91125   4.02808     10.40000      1.60000 4342.4  0.600  1   8406  0.787 1345.486816 2116.680420 1296.660889
  6.17351   2.92855   3.98372     10.80000      1.60000 3340.1  0.143  1   9120  1.899 1313.564575 2110.519287 1286.642700
  6.17351   2.92855   3.98372     11.20000      1.60000 3131.9  0.143  1   8173  1.842 1288.248169 2101.972168 1275.497437
  2.02998   1.44546   0.49901     11.60000      1.60000 3305.7  0.686  1   8222  1.778 1288.255249 2129.545410 1278.705566
  1.84184   2.55938   3.42464     12.00000      1.60000 3162.9  0.286  1   8458  1.748 1312.504883 2113.292725 1286.273804
  0.08812   2.85538   4.93924      0.00000      2.00000 4849.3  0.714  1   7116  0.705 1301.698853 1990.707397 1307.532471
  0.08372   2.85955   4.93723      0.40000      2.00000 5768.9  0.857  1   8435  0.687 1260.847900 1977.121582 1292.031982
  0.08697   2.85679   4.93868      0.80000      2.00000 6141.2  0.686  1   8330  0.737 1248.982544 1959.077026 1280.276855
  0.09343   2.85634   4.94685      1.20000      2.00000 5978.5  0.714  1   8168  0.739 1226.448608 1948.017944 1269.477661
  0.10817   2.86006   4.96158      1.60000      2.00000 5864.4  0.714  1   8004  0.781 1224.234985 1939.982178 1276.359863
  0.10668   2.85288   4.96143      2.00000      2.00000 5138.9  0.714  1   8057  0.657 1223.259766 1964.643555 1274.298462
  0.09801   2.84143   2.86872      2.40000      2.00000 4077.1  0.286  1   8760  1.081 1231.058960 2013.078735 1280.363159
  0.09801   2.84143   2.86872      2.80000      2.00000 3450.9  0.286  1   7058  1.934 1224.499023 2013.873169 1264.246948
  3.48373   2.31919   0.63350      3.20000      2.00000 3972.4  0.171  1   8360  1.061 1227.117676 2063.839600 1269.628052
  3.47838   2.31764   0.62808      3.60000      2.00000 4242.3  0.200  1   8148  0.926 1197.622070 2056.692627 1267.450439
  3.47498   2.31836   0.62601      4.00000      2.00000 4319.9  0.143  1   8180  1.171 1175.092773 2092.404053 1271.102417
  3.47428   2.31739   0.62210      4.40000      2.00000 4042.1  0.286  1  10987  1.675 1153.946045 2090.066895 1272.014160
  3.32302   1.40317   0.42710      4.80000      2.00000 3128.8  0.457  1  14680  1.850 1149.778931 2135.521973 1265.917236
  3.33284   1.40301   0.42821      5.20000      2.00000 2758.5  0.600  1   9892  1.824 1113.448486 2166.895996 1256.183228
  3.33554   1.40255   0.42632      5.60000      2.00000 2634.4  0.171  1   7158  1.910 1089.207153 2210.566162 1254.405518
  2.60909   2.01527   5.38809      6.00000      2.00000 2328.7  0.029  1   8417  1.835 1072.762573 2231.630859 1254.337524
  6.17311   2.90258   0.85193      6.40000      2.00000 2331.7  0.229  1   2684  2.092 1149.722656 2228.483643 1269.361572
  6.17311   2.90258   0.85193      6.80000      2.00000 3798.7  0.229  1   9652  1.375 1232.522461 2245.096680 1282.619995
  3.06536   0.22785   4.34781      7.20000      2.00000 4698.3  0.400  1  13851  1.009 1269.207397 2211.930908 1288.374268
  3.06413   0.23064   4.34801      7.60000      2.00000 4657.0  0.514  1  10281  0.919 1270.551636 2213.175781 1282.968750
  3.06011   0.22541   4.34888      8.00000      2.00000 4151.2  0.457  1  12804  1.209 1251.873779 2185.674561 1275.309448
  6.16914   2.90921   3.98838      8.40000      2.00000 3986.1  0.257  1  10034  1.096 1269.291748 2202.803711 1272.382080
  6.17809   2.91490   3.99654      8.80000      2.00000 5027.0  0.714  1  10818  0.651 1299.820801 2204.422363 1279.862671
  6.18989   2.91399   4.00459      9.20000      2.00000 6073.3  0.714  1   5627  0.566 1329.361084 2195.201660 1288.047241
  6.19862   2.91173   4.01571      9.60000      2.00000 6487.3  0.714  1   7240  0.452 1335.305786 2190.027588 1292.421021
  6.22359   2.91339   4.04560     10.00000      2.00000 6181.6  0.429  1   7819  0.476 1347.943359 2155.170166 1297.682861
  6.22813   2.91520   4.04865     10.40000      2.00000 5190.5  0.714  1   8223  0.546 1327.593384 2143.457764 1291.740112
  3.08012   0.23421   1.18705     10.80000      2.00000 3760.0  0.286  1   8540  0.942 1307.826660 2138.561523 1287.393066
  2.02998   1.44546   0.49901     11.20000      2.00000 3214.4  0.686  1   8156  1.710 1284.855103 2129.260010 1277.380127
  2.02998   1.44546   0.49901     11.60000      2.00000 3400.2  0.686  1   7279  0.864 1263.788574 2142.342285 1277.502930
  2.02998   1.44546   0.49901     12.00000      2.00000 2466.6  0.686  1   6975  1.960 1257.851807 2108.591064 1279.480713
  0.09677   2.85590   4.94644      0.00000      2.40000 4475.4  0.371  1   7728  0.790 1261.072632 1995.616089 1297.049805
  0.09884   2.85925   4.95367      0.40000      2.40000 5349.4  0.800  1   8300  0.707 1221.446655 1972.368408 1279.916748
  0.10651   2.86143   4.96107      0.80000      2.40000 5565.1  0.686  1   9559  0.675 1210.307739 1940.234863 1269.343506
  0.10243   2.86075   4.95587      1.20000      2.40000 5488.2  0.714  1   7375  0.621 1181.406006 1933.390259 1263.722534
  0.10149   2.85972   4.95620      1.60000      2.40000 4989.1  0.571  1   8205  0.921 1161.147217 1958.139404 1272.200439
  0.12654   2.86004   4.98244      2.00000      2.40000 3938.2  0.200  1   6808  1.278 1168.169067 1991.846436 1269.753418
  3.47565   2.32154   0.62956      2.40000      2.40000 3670.2  0.429  1   8266  1.750 1194.932129 2034.731445 1271.653564
  3.47647   2.32146   0.62671      2.80000      2.40000 3850.5  0.657  1   8916  1.282 1235.936279 2042.110840 1266.195313
  3.47647   2.32146   0.62671      3.20000      2.40000 4592.4  0.657  1   9612  0.708 1243.740723 2066.769043 1265.780640
  3.48373   2.31782   0.62699      3.60000      2.40000 5072.4  0.314  1  10216  0.848 1241.406372 2068.289063 1269.286743
  3.47554   2.30803   0.62308      4.00000      2.40000 5328.8  0.400  1  10528  0.989 1246.933594 2068.050293 1277.786011
  3.47428   2.31739   0.62210      4.40000      2.40000 5043.1  0.286  1  11067  1.023 1266.560303 2074.445068 1286.593506
  3.46931   2.31697   0.62365      4.80000      2.40000 4535.8  0.286  1  13392  1.131 1295.262695 2094.549316 1296.805420
  0.33604   0.82873   4.61785      5.20000      2.40000 3439.5  0.457  1  11312  0.982 1311.827148 2121.195068 1296.371704
  0.33604   0.82873   4.61785      5.60000      2.40000 2922.4  0.457  1  10595  1.446 1325.754028 2124.545898 1296.224487
  5.50138   1.00743   1.79368      6.00000      2.40000 2669.9  0.314  1  14277  1.671 1334.829224 2128.317871 1288.413086
  5.51296   1.01694   1.78612      6.40000      2.40000 2887.9  0.257  1  14809  1.770 1353.597656 2162.716064 1293.321045
  6.21206   2.90715   0.89534      6.80000      2.40000 4005.5  0.114  1  10619  1.504 1366.764282 2199.652344 1294.973267
  6.18871   2.90977   5.05994      7.20000      2.40000 5248.2  0.286  1   7076  1.090 1387.329468 2192.048096 1301.699341
  3.05361   0.23342   4.36212      7.60000      2.40000 5390.3  0.600  1   9195  0.923 1380.532227 2189.557861 1298.980957
  3.04049   0.23638   4.37120      8.00000      2.40000 5162.1  0.714  1  12912  0.764 1377.006348 2173.122314 1292.891968
  3.04049   0.23638   4.37120      8.40000      2.40000 5133.3  0.714  1  14728  0.910 1355.308228 2180.181885 1285.922363
  6.18279   2.91172   4.00182      8.80000      2.40000 5783.3  0.429  1   6455  0.745 1335.651978 2202.676025 1285.807007
  6.17558   2.91340   3.99581      9.20000      2.40000 6468.9  0.714  1   5628  0.653 1319.254028 2200.029785 1284.607422
  6.21059   2.90881   4.02384      9.60000      2.40000 6591.5  0.714  1   6269  0.526 1303.187988 2204.405273 1280.680786
  6.18258   2.91150   4.00363     10.00000      2.40000 6426.9  0.714  1   7179  0.477 1292.925171 2162.170654 1278.890869
  3.06919   0.22647   1.20751     10.40000      2.40000 5556.4  0.600  1   8128  0.641 1265.765503 2155.682373 1281.123535
  3.05627   0.23168   1.21788     10.80000      2.40000 4368.7  0.257  1   8535  0.953 1234.725952 2143.454346 1281.880371
  3.05627   0.23168   1.21788     11.20000      2.40000 3364.3  0.257  1   7097  1.590 1214.507568 2152.688477 1280.471924
  1.77936   2.97460   2.91556     11.60000      2.40000 3296.6  0.143  1   6416  1.670 1209.402222 2139.968750 1277.242554
  1.77936   2.97460   2.91556     12.00000      2.40000 2775.3  0.143  1   4047  1.853 1247.438354 2113.649170 1282.747192
  0.08517   2.85794   4.93871      0.00000      2.80000 4120.8  0.429  1   8362  0.876 1249.872803 1982.709961 1289.396240
  0.10537   2.86104   4.95669      0.40000      2.80000 5062.6  0.771  1   7919  0.631 1203.463135 1966.187012 1277.415649
  0.12235   2.86453   4.97491      0.80000      2.80000 5298.7  0.600  1   8117  0.879 1175.189819 1934.616089 1272.116333
  0.10756   2.85828   4.96170      1.20000      2.80000 5105.7  0.257  1   7960  1.037 1136.586914 1946.988403 1266.200317
  0.09990   2.86082   4.95542      1.60000      2.80000 4523.1  0.286  1   7526  1.076 1116.538940 1960.202148 1272.982666
  3.47565   2.32154   0.62956      2.00000      2.80000 3577.4  0.429  1   6327  1.607 1151.269043 1992.234131 1271.498047
  3.47565   2.32154   0.62956      2.40000      2.80000 4093.7  0.429  1  10267  0.962 1214.523071 2032.357666 1273.677002
  3.48284   2.32305   0.63102      2.80000      2.80000 4648.2  0.429  1   8929  0.933 1268.975464 2068.677734 1266.176758
  3.48095   2.32250   0.62710      3.20000      2.80000 4970.2  0.429  1   9079  0.762 1296.734985 2094.855713 1269.048584
  3.47843   2.32040   0.62622      3.60000      2.80000 5439.9  0.714  1   9747  0.445 1305.627197 2095.795410 1280.854614
  3.47805   2.31445   0.62550      4.00000      2.80000 5770.7  0.371  1   9642  0.925 1311.296997 2082.173096 1292.100952
  3.47761   2.31680   0.62664      4.40000      2.80000 5779.2  0.286  1   9917  0.999 1299.360962 2078.475830 1297.747437
  3.47799   2.31484   0.62572      4.80000      2.80000 5126.4  0.400  1  11726  1.057 1307.681152 2083.924805 1301.856567
  3.47880   2.31779   0.62585      5.20000      2.80000 3788.3  0.714  1  11024  0.967 1337.242432 2091.190918 1300.806274
  3.47880   2.31779   0.62585      5.60000      2.80000 3497.8  0.714  1  11300  1.742 1401.479736 2095.273682 1300.864746
  5.50138   1.00743   1.79368      6.00000      2.80000 4129.9  0.314  1  13280  1.238 1436.816772 2086.798828 1299.275146
  5.51296   1.01694   1.78612      6.40000      2.80000 3761.8  0.257  1  13784  1.483 1434.472168 2106.822021 1297.779663
  3.06823   0.22590   4.35246      6.80000      2.80000 3761.7  0.429  1   9751  1.999 1411.697388 2156.768799 1296.064819
  3.06823   0.22590   4.35246      7.20000      2.80000 4564.8  0.429  1   7406  0.606 1368.658325 2156.804443 1298.885986
  6.21145   2.91410   5.07463      7.60000      2.80000 5553.3  0.457  1   7190  0.856 1373.511963 2180.131592 1292.466309
  3.04571   0.22563   4.37313      8.00000      2.80000 5469.6  0.429  1   9204  0.573 1354.835938 2149.619629 1289.942139
  6.18829   2.91528   4.00532      8.40000      2.80000 5433.2  0.400  1  10255  0.649 1321.352417 2160.814697 1280.787964
  6.17970   2.91332   3.99605      8.80000      2.80000 5688.0  0.429  1   7870  0.648 1284.093994 2171.301514 1280.897461
  6.18180   2.91340   4.00142      9.20000      2.80000 5948.6  0.429  1   7406  0.576 1251.758179 2187.243408 1277.625244
  6.18604   2.90944   4.00599      9.60000      2.80000 6018.2  0.714  1   6250  0.504 1223.394165 2186.938232 1274.386841
  6.18035   2.91394   4.00202     10.00000      2.80000 5896.6  0.714  1   6653  0.594 1216.475586 2158.932129 1275.166260
  6.18226   2.91459   3.99969     10.40000      2.80000 5184.9  0.714  1   7691  0.479 1187.848999 2143.009521 1277.759399
  3.05565   0.22935   1.22324     10.80000      2.80000 4132.2  0.257  1   8664  0.862 1149.116455 2137.039795 1275.124023
  3.05565   0.22935   1.22324     11.20000      2.80000 3040.8  0.257  1   8155  1.852 1111.890625 2153.163818 1273.051025
  1.77936   2.97460   2.91556     11.60000      2.80000 2449.8  0.143  1   4196  1.785 1070.975342 2174.598633 1259.457031
  3.72521   1.50107   0.38023     12.00000      2.80000 2559.3  0.000  1   2309  2.061 1087.637695 2173.775391 1261.601807
  0.08823   2.85540   4.93563      0.00000      3.20000 4083.7  0.457  1   8251  0.967 1211.687622 2009.688721 1286.771484
  0.10222   2.85434   4.95252      0.40000      3.20000 5082.5  0.857  1   7849  0.677 1159.158936 1988.536743 1269.512085
  0.11412   2.86263   4.96176      0.80000      3.20000 5224.1  0.286  1   8318  1.048 1122.948730 1967.412720 1262.429077
  0.10573   2.86069   4.95710      1.20000      3.20000 4909.1  0.286  1   8335  1.053 1079.779541 1979.778564 1254.511108
  0.13198   2.85904   4.98051      1.60000      3.20000 3803.8  0.143  1   6820  1.183 1072.463501 2030.998657 1268.909302
  3.47927   2.32032   0.62998      2.00000      3.20000 4092.5  0.143  1   6911  1.427 1144.701904 2054.622314 1271.630981
  3.47332   2.31779   0.62766      2.40000      3.20000 4408.7  0.457  1  11252  0.881 1220.782837 2066.289063 1274.890015
  3.48270   2.32141   0.62939      2.80000      3.20000 4844.8  0.714  1   8563  0.734 1280.948853 2073.335693 1267.645630
  3.47205   2.31758   0.62580      3.20000      3.20000 5061.6  0.714  1   8994  0.537 1300.580200 2077.916016 1269.789795
  3.47616   2.31698   0.62473      3.60000      3.20000 5696.7  0.429  1   9141  0.801 1316.181030 2092.004883 1276.213013
  3.47723   2.31096   0.62241      4.00000      3.20000 5934.5  0.286  1   9791  0.775 1298.335083 2085.058838 1284.474243
  3.47377   2.31365   0.62078      4.40000      3.20000 5739.5  0.257  1   9231  1.016 1279.754028 2092.105469 1291.496216
  3.48238   2.31939   0.62370      4.80000      3.20000 4870.1  0.286  1   9137  1.029 1288.629395 2091.334473 1298.800293
  2.86622   0.62028   3.37509      5.20000      3.20000 3491.1  0.114  2   6652  1.482 1346.157227 2094.606201 1302.901245
  5.51084   1.00982   1.78889      5.60000      3.20000 4204.7  0.343  1  13320  1.565 1405.376343 2073.487793 1300.088623
  2.36550   2.13538   3.44917      6.00000      3.20000 4738.0  0.229  1   9921  1.333 1392.513794 2066.627197 1291.179077
  5.49953   1.01364   1.78772      6.40000      3.20000 4847.8  0.629  1  10125  0.948 1413.189331 2065.151367 1286.435669
  5.50724   1.01335   1.78374      6.80000      3.20000 4277.3  0.171  1   9429  1.441 1383.322510 2122.378174 1281.604248
  2.37115   2.12040   5.54437      7.20000      3.20000 4280.6  0.657  1   8250  1.552 1349.373535 2147.888916 1285.457886
  6.20911   2.91338   5.07318      7.60000      3.20000 5015.8  0.429  1   7429  0.553 1312.833374 2169.804688 1283.451904
  6.18755   2.91359   5.05217      8.00000      3.20000 5100.0  0.686  1   7484  0.523 1288.649292 2145.302246 1286.116211
  3.06330   0.22554   5.40378      8.40000      3.20000 4911.6  0.371  1   6273  0.870 1269.426025 2149.312988 1280.725830
  3.05112   0.22949   5.41594      8.80000      3.20000 5128.3  0.400  1   7111  0.750 1245.454712 2149.432373 1276.500488
  3.06188   0.23479   5.40055      9.20000      3.20000 5165.9  0.400  1   5948  0.913 1223.236938 2159.823486 1266.539063
  3.06201   0.22934   5.40073      9.60000      3.20000 4946.4  0.429  1   5222  0.700 1194.866333 2173.235107 1265.779053
  3.03899   0.22483   5.42557     10.00000      3.20000 4681.9  0.229  1   9562  1.022 1183.192261 2149.036621 1267.758301
  6.18226   2.91459   3.99969     10.40000      3.20000 4093.4  0.714  1   7872  1.710 1150.301880 2119.513916 1274.601685
  3.16952   0.24641   5.32456     10.80000      3.20000 3771.3  0.143  1   8430  1.869 1110.648926 2092.773438 1268.189941
  3.85201   1.46332   3.56584     11.20000      3.20000 2910.0  0.171  1   9704  2.180 1092.018311 2095.883057 1274.529907
  3.84518   1.46151   3.56761     11.60000      3.20000 2598.6  0.171  1   4723  1.906 1077.877075 2179.880615 1268.327759
  5.46742   0.90108   3.27010     12.00000      3.20000 2317.7  0.029  1    419  2.031 1161.162720 2205.469971 1287.149048
  0.11257   2.84961   4.96414      0.00000      3.60000 3922.2  0.829  1   7495  0.778 1167.782593 2018.210205 1289.099854
  0.11258   2.84959   4.96413      0.40000      3.60000 4778.9  0.800  1   8119  0.691 1107.867432 1994.889526 1271.359253
  0.10467   2.86065   4.95554      0.80000      3.60000 4821.5  0.314  1   8456  1.063 1068.346191 1973.588623 1258.843384
  0.12585   2.86068   4.97395      1.20000      3.60000 4388.4  0.286  1   7317  0.966 1034.471313 2002.427368 1246.210083
  0.12585   2.86068   4.97395      1.60000      3.60000 3367.0  0.286  1   4638  1.431 1057.934204 2055.613037 1266.707520
  3.47201   2.32026   0.62466      2.00000      3.60000 3706.6  0.714  1   4543  1.258 1159.885254 2069.064697 1270.642334
  3.47201   2.32026   0.62466      2.40000      3.60000 4523.2  0.714  1   9184  0.572 1222.943970 2068.121338 1277.104370
  3.47248   2.31564   0.62774      2.80000      3.60000 4908.8  0.457  1   9772  0.890 1247.828003 2063.388672 1267.526245
  3.47234   2.31667   0.62677      3.20000      3.60000 4784.9  0.286  1   8759  0.957 1283.447876 2093.252441 1274.129028
  3.47730   2.31595   0.62523      3.60000      3.60000 5339.9  0.343  1   8291  0.925 1269.579590 2089.517822 1277.622192
  3.47771   2.31292   0.62359      4.00000      3.60000 5263.7  0.429  1   8228  0.806 1243.172485 2104.928955 1281.493896
  3.48728   2.32711   0.62383      4.40000      3.60000 5015.1  0.171  1   7578  1.328 1224.621460 2110.809570 1283.529175
  3.48658   2.33092   0.62571      4.80000      3.60000 3592.3  0.314  1   6194  1.482 1249.803711 2106.858643 1289.575439
  2.37288   2.12493   3.45342      5.20000      3.60000 3815.7  0.171  1  12359  1.395 1320.940918 2085.344238 1298.657837
  5.51084   1.00982   1.78889      5.60000      3.60000 4644.0  0.343  1  18965  1.304 1373.219238 2055.166748 1296.294434
  2.36619   2.13336   3.44913      6.00000      3.60000 5474.6  0.629  1   7454  0.990 1380.522949 2039.573730 1287.514404
  2.35632   2.12710   3.44764      6.40000      3.60000 5530.1  0.629  1   6742  0.944 1360.353271 2039.390015 1277.805420
  2.36317   2.12389   3.45092      6.80000      3.60000 5102.7  0.629  1   8239  0.885 1328.158203 2097.512695 1273.965820
  2.37115   2.12040   5.54437      7.20000      3.60000 4187.9  0.657  1   7443  1.241 1266.915894 2134.203369 1272.423462
  2.37115   2.12040   5.54437      7.60000      3.60000 4032.9  0.657  1   7332  1.572 1219.278198 2151.916748 1265.605713
  6.18755   2.91359   5.05217      8.00000      3.60000 3902.2  0.686  1   5496  0.916 1187.772217 2115.399658 1274.673218
  6.25081   2.90888   3.02598      8.40000      3.60000 3918.5  0.143  1  10558  1.261 1206.109009 2118.493652 1273.169800
  3.82398   1.45318   3.56376      8.80000      3.60000 4108.4  0.686  1   9196  1.758 1216.146973 2111.802246 1271.470093
  3.06188   0.23479   5.40055      9.20000      3.60000 4422.8  0.400  1   9822  1.929 1215.376709 2115.000244 1262.038818
  3.06201   0.22934   5.40073      9.60000      3.60000 4947.4  0.429  1   8825  1.883 1204.886353 2097.637695 1266.994751
  3.83095   1.45332   3.56415     10.00000      3.60000 5221.5  0.171  1   7346  1.443 1193.386353 2110.693359 1271.625732
  3.83631   1.45629   3.56491     10.40000      3.60000 5191.6  0.171  1   7898  1.221 1185.081787 2094.791992 1277.599487
  3.84298   1.45854   3.56602     10.80000      3.60000 4885.3  0.143  1  10318  1.266 1197.308228 2076.066895 1281.309937
  3.85201   1.46332   3.56584     11.20000      3.60000 4324.6  0.171  1  12453  1.310 1216.994995 2066.718750 1296.706421
  3.84518   1.46151   3.56761     11.60000      3.60000 3500.8  0.171  1  15573  1.255 1261.664673 2107.698486 1306.529663
  3.84518   1.46151   3.56761     12.00000      3.60000 2540.6  0.171  1    105  2.213 1272.762207 2172.607178 1317.992798
  0.11106   2.85082   4.96983      0.00000      4.00000 3599.3  0.486  1   5922  0.938 1162.925049 2026.260620 1293.047974
  0.10965   2.85094   4.96782      0.40000      4.00000 4434.4  0.429  1   7503  0.959 1102.225342 2006.317627 1271.817139
  0.10947   2.85179   4.95763      0.80000      4.00000 4094.1  0.314  1  11893  1.125 1076.379883 1976.516846 1257.012939
  0.13233   2.86242   4.98976      1.20000      4.00000 3661.6  0.143  1  14895  1.019 1059.258057 2006.389282 1247.084961
  0.13233   2.86242   4.98976      1.60000      4.00000 2589.0  0.143  1   4794  1.639 1098.186157 2079.365967 1272.384644
  1.12712   0.66805   4.30149      2.00000      4.00000 3336.7  0.114  1   4724  1.418 1177.437500 2102.339844 1276.592529
  3.47201   2.32026   0.62466      2.40000      4.00000 3897.6  0.714  1  10823  1.561 1212.856323 2105.337402 1278.849854
  3.46542   2.32060   0.62287      2.80000      4.00000 4576.2  0.171  1   8593  1.275 1243.932007 2081.553955 1273.979614
  3.46613   2.32007   0.61826      3.20000      4.00000 4363.8  0.257  1   7179  1.001 1250.421265 2080.644531 1276.954712
  3.47713   2.32873   0.62362      3.60000      4.00000 4462.9  0.371  1   8170  0.840 1247.268433 2099.377197 1275.600098
  3.47771   2.31292   0.62359      4.00000      4.00000 4026.9  0.429  1  10916  1.370 1224.057373 2118.682617 1276.857666
  3.48728   2.32711   0.62383      4.40000      4.00000 3432.1  0.171  1  12488  1.972 1243.757324 2118.633545 1279.732300
  2.38103   2.13340   3.45796      4.80000      4.00000 3227.0  0.771  1  10798  1.585 1282.081421 2105.780029 1288.547363
  2.38103   2.13340   3.45796      5.20000      4.00000 3975.6  0.771  1   7778  0.900 1328.764771 2089.270020 1295.047852
  2.38116   2.12727   3.45525      5.60000      4.00000 4722.1  0.829  1  17597  0.607 1337.112549 2053.542480 1290.389648
  2.37354   2.13134   3.45620      6.00000      4.00000 5421.2  0.457  1  13241  0.885 1320.739136 2033.135742 1280.597412
  5.52067   1.00357   1.78203      6.40000      4.00000 5641.4  0.429  1   3607  1.014 1300.010132 2028.954102 1273.036133
  5.49528   1.01161   1.79192      6.80000      4.00000 5676.5  0.571  1   5989  1.062 1279.803223 2076.140625 1270.873291
  2.37302   2.12380   3.44707      7.20000      4.00000 4780.6  0.286  1   7234  1.371 1242.007935 2112.263672 1267.569946
  2.37302   2.12380   3.44707      7.60000      4.00000 3779.9  0.286  1   7410  1.531 1217.377808 2150.103271 1264.080688
  3.80927   1.44940   3.56323      8.00000      4.00000 3507.5  0.200  1   7574  1.580 1211.516479 2118.953125 1275.040405
  3.82366   1.45541   3.56467      8.40000      4.00000 4519.9  0.686  1   8269  1.169 1237.641968 2098.465576 1280.730835
  3.82398   1.45318   3.56376      8.80000      4.00000 5038.7  0.686  1   8236  1.019 1263.963379 2063.302002 1281.345459
  0.68046   1.68091   1.66663      9.20000      4.00000 5449.0  0.171  1   8805  1.186 1275.905396 2055.094238 1272.897705
  3.82141   1.44564   3.56472      9.60000      4.00000 5776.3  0.171  1   8072  1.275 1272.434570 2036.059082 1273.935303
  0.69526   1.69188   1.67350     10.00000      4.00000 6118.2  0.286  1   8436  1.241 1255.831421 2052.185547 1275.224731
  0.69844   1.68911   1.67298     10.40000      4.00000 6204.1  0.429  1   8486  0.943 1245.152832 2055.637939 1283.078735
  0.69844   1.68911   1.67298     10.80000      4.00000 5936.3  0.429  1   9528  1.136 1266.293335 2055.096924 1290.111938
  0.69742   1.68431   1.66884     11.20000      4.00000 5449.1  0.371  1  11325  0.767 1282.020874 2056.257813 1305.583740
  3.84575   1.46195   3.56045     11.60000      4.00000 4642.4  0.171  1  13879  1.389 1326.533813 2067.781006 1319.301147
  3.84575   1.46195   3.56045     12.00000      4.00000 2688.9  0.171  1   7719  1.763 1356.833252 2098.598633 1333.165771
  5.56057   0.37391   1.75297      0.00000      4.40000 2991.5  0.143  1   9580  1.756 1248.250244 2035.897949 1297.238159
  0.10965   2.85094   4.96782      0.40000      4.40000 3638.1  0.429  1  12926  1.832 1230.494385 2004.356934 1289.035278
  0.10947   2.85179   4.95763      0.80000      4.40000 3881.0  0.314  1  11814  2.155 1248.610840 1970.344238 1285.143677
  0.13233   2.86242   4.98976      1.20000      4.40000 2923.7  0.143  1  13332  1.923 1282.085083 2006.617310 1295.801270
  1.12712   0.66805   4.30149      1.60000      4.40000 2988.3  0.114  1  14798  1.830 1276.996094 2027.861816 1302.126465
  1.12712   0.66805   4.30149      2.00000      4.40000 3761.7  0.114  1   5493  1.381 1270.529541 2070.538574 1295.804077
  1.11296   0.67334   4.31768      2.40000      4.40000 3954.6  0.200  1   5084  1.625 1259.856812 2075.622314 1285.106567
  1.10917   0.67385   4.32363      2.80000      4.40000 4608.2  0.200  1   6301  1.899 1264.118896 2082.801270 1277.392090
  1.10762   0.67309   4.32120      3.20000      4.40000 4416.6  0.543  1   8430  1.403 1255.823853 2089.016602 1279.509277
  3.47713   2.32873   0.62362      3.60000      4.40000 4336.7  0.371  1   8212  1.409 1226.787354 2128.226074 1278.333740
  1.11185   0.67085   4.31638      4.00000      4.40000 4145.4  0.200  1   8622  1.283 1203.677856 2149.090332 1277.635620
  4.23471   2.47126   0.92561      4.40000      4.40000 3256.6  0.143  1  10189  1.539 1200.739990 2130.145264 1273.156006
  2.38741   2.13350   5.54731      4.80000      4.40000 2860.3  0.657  1   8899  1.764 1221.944702 2088.070801 1274.263428
  2.38741   2.13350   5.54731      5.20000      4.40000 3489.6  0.657  1   6435  0.787 1244.074829 2052.261230 1279.494629
  2.38076   2.12929   5.54691      5.60000      4.40000 4302.2  0.514  1  10718  0.785 1259.381470 2049.555908 1280.288818
  2.37556   2.13256   3.44707      6.00000      4.40000 5129.5  0.629  1  12245  0.810 1261.061035 2027.634888 1280.654175
  2.37130   2.13112   3.44799      6.40000      4.40000 5577.5  0.514  1   6128  0.898 1261.368896 2030.773315 1279.099121
  2.36345   2.12716   3.44221      6.80000      4.40000 5723.8  0.714  1   7553  1.002 1246.641113 2035.184082 1276.376221
  2.36472   2.12955   3.44041      7.20000      4.40000 4963.1  0.600  1   7841  0.873 1236.054932 2073.481445 1272.913208
  2.36472   2.12955   3.44041      7.60000      4.40000 4352.1  0.600  1   7958  1.509 1239.094482 2095.712402 1268.348267
  0.69988   1.69205   1.67085      8.00000      4.40000 5022.2  0.257  1   9598  1.059 1249.935181 2071.042480 1274.510010
  3.83763   1.45537   3.56227      8.40000      4.40000 5833.3  0.400  1   7544  1.269 1258.182739 2044.420410 1278.042969
  0.70277   1.68916   1.67537      8.80000      4.40000 5905.6  0.829  1   7947  0.743 1280.208740 2026.771118 1281.338257
  0.68833   1.68867   1.67148      9.20000      4.40000 6214.5  0.171  1   9061  1.330 1280.222534 2018.817139 1280.153198
  0.69572   1.69490   1.67448      9.60000      4.40000 6374.5  0.429  1   7823  1.010 1276.583008 1995.050903 1277.363037
  3.82801   1.44747   3.56402     10.00000      4.40000 6643.9  0.429  1   8033  1.123 1252.881836 2006.258667 1275.103516
  0.69227   1.68970   1.67431     10.40000      4.40000 6486.5  0.314  1   7867  1.081 1245.515869 2014.225830 1275.263794
  0.70035   1.68435   1.67420     10.80000      4.40000 6427.9  0.400  1   8786  1.017 1258.058960 2032.732788 1282.403320
  3.84497   1.45862   3.56480     11.20000      4.40000 6020.7  0.171  1  10539  1.269 1257.725586 2035.382813 1292.967773
  3.84513   1.46064   3.56266     11.60000      4.40000 5061.1  0.371  1  12726  0.892 1289.510986 2050.987061 1309.571167
  3.82711   1.46013   3.56400     12.00000      4.40000 3051.7  0.143  1  12565  1.254 1314.980957 2074.983887 1326.331299
  0.67426   1.29598   2.18768      0.00000      4.80000 2962.0  0.343  1  11731  1.246 1351.490601 2041.902222 1299.050781
  0.67228   1.29514   2.18538      0.40000      4.80000 3347.3  0.429  1   8438  1.789 1331.882324 2014.060059 1286.266724
  0.68116   1.29482   2.18859      0.80000      4.80000 3707.4  0.457  1  10222  1.510 1364.708862 1992.410645 1296.004272
  2.74879   1.88868   2.99045      1.20000      4.80000 3552.6  0.086  1  12869  1.697 1397.208374 2007.599487 1302.783569
  1.12240   0.67382   4.30712      1.60000      4.80000 3923.7  0.257  1   7821  1.678 1364.489868 2034.731445 1303.626465
  1.12240   0.67382   4.30712      2.00000      4.80000 4788.8  0.257  1   7678  1.271 1319.176758 2091.545898 1290.064575
  1.11296   0.67334   4.31768      2.40000      4.80000 5234.3  0.200  1  10662  0.968 1288.220825 2097.395264 1281.857300
  1.10917   0.67385   4.32363      2.80000      4.80000 5281.1  0.200  1   7328  0.812 1250.467651 2104.795166 1270.471924
  1.10762   0.67309   4.32120      3.20000      4.80000 5049.9  0.543  1   7381  0.569 1253.566895 2091.541748 1278.280884
  1.11199   0.67041   4.31685      3.60000      4.80000 5582.3  0.229  1   6797  1.022 1212.060913 2123.488281 1276.715088
  1.11185   0.67085   4.31638      4.00000      4.80000 5013.5  0.200  1   7231  1.011 1183.198730 2152.921143 1275.481812
  4.24463   2.47026   0.91272      4.40000      4.80000 3948.1  0.200  1   7098  0.845 1204.572998 2145.945313 1270.477417
  5.51530   1.01356   1.78596      4.80000      4.80000 2732.2  0.543  1   4571  1.801 1166.618042 2106.286377 1262.417603
  5.51530   1.01356   1.78596      5.20000      4.80000 3016.3  0.543  1   4058  0.924 1161.649048 2062.846436 1260.442505
  2.37919   2.12921   5.54690      5.60000      4.80000 3915.7  0.514  1   5328  0.774 1183.264893 2069.821777 1266.268677
  2.37153   2.13522   3.44988      6.00000      4.80000 4996.1  0.343  1   8738  0.895 1210.049683 2056.477295 1275.576660
  5.51430   1.00478   1.78827      6.40000      4.80000 5527.5  0.343  1   9336  0.914 1235.348389 2044.615234 1280.341064
  2.37085   2.13150   3.44375      6.80000      4.80000 5741.1  0.400  1   8354  1.061 1230.942139 2032.589478 1274.740356
  2.35979   2.12504   5.53975      7.20000      4.80000 4748.9  0.686  1   8113  1.067 1234.626343 2050.397949 1273.500488
  0.69934   1.69007   1.67207      7.60000      4.80000 4536.5  0.686  1   7264  1.724 1245.551514 2077.638184 1272.115234
  0.69934   1.69007   1.67207      8.00000      4.80000 5231.6  0.686  1   9259  0.816 1259.938110 2062.778320 1275.676514
  0.69796   1.68937   1.67347      8.40000      4.80000 6158.0  0.429  1   8339  1.120 1254.170532 2031.643311 1277.352051
  3.84336   1.45132   3.55969      8.80000      4.80000 6399.2  0.429  1   8432  1.259 1256.966797 2008.275635 1283.570923
  3.84401   1.45654   3.56572      9.20000      4.80000 6545.0  0.400  1   8035  1.214 1249.747925 1997.029297 1282.945801
  3.83963   1.45490   3.56377      9.60000      4.80000 6720.4  0.200  1   7751  1.127 1248.935059 1989.582397 1279.427612
  0.70099   1.68845   1.67368     10.00000      4.80000 6838.7  0.314  1   7336  1.038 1231.078369 1979.934570 1274.402222
  0.70647   1.68350   1.67334     10.40000      4.80000 6900.0  0.114  1   7418  1.358 1224.290771 1974.755493 1273.595581
  0.70664   1.67730   1.66926     10.80000      4.80000 6698.1  0.686  1   8528  0.746 1233.091675 1992.587280 1278.305542
  0.70572   1.68302   1.67413     11.20000      4.80000 6224.1  0.257  1  10144  1.019 1221.449951 2014.704224 1279.707764
  3.83962   1.45411   3.56482     11.60000      4.80000 5170.3  0.286  1  11755  1.126 1248.028320 2054.518555 1298.249634
  3.83605   1.45633   3.55344     12.00000      4.80000 3163.2  0.143  1  11063  1.540 1291.926270 2072.085938 1320.017212
  0.67426   1.29598   2.18768      0.00000      5.20000 3471.0  0.343  1  11131  1.019 1401.824341 2072.514404 1302.886841
  0.67228   1.29514   2.18538      0.40000      5.20000 4119.2  0.429  1   9094  1.029 1401.918579 2046.150635 1295.637451
  0.68116   1.29482   2.18859      0.80000      5.20000 4569.5  0.457  1  10334  1.295 1389.270264 2011.737427 1288.340454
  0.66916   1.31678   2.18822      1.20000      5.20000 3836.3  0.857  1  11187  1.709 1389.958740 2017.471924 1292.207764
  1.11129   0.66755   4.31085      1.60000      5.20000 4022.6  0.286  1  11498  1.788 1351.144043 2064.510986 1286.434692
  1.11129   0.66755   4.31085      2.00000      5.20000 5222.1  0.286  1   7032  1.087 1314.048950 2107.273682 1283.269775
  1.11414   0.67270   4.31982      2.40000      5.20000 5809.2  0.200  1   7734  1.031 1269.364746 2109.332275 1271.224365
  1.10605   0.67336   4.32633      2.80000      5.20000 5934.2  0.200  1   6860  0.827 1250.060425 2104.525391 1265.015625
  1.11282   0.67007   4.31928      3.20000      5.20000 5853.1  0.229  1   7079  0.980 1223.879395 2092.213623 1260.368286
  1.11071   0.67489   4.32268      3.60000      5.20000 5948.4  0.200  1   7100  0.953 1177.652344 2116.577393 1260.894043
  1.10744   0.66900   4.32567      4.00000      5.20000 5193.7  0.286  1   7241  0.975 1124.620483 2149.067383 1256.752808
  4.24693   2.46905   0.91237      4.40000      5.20000 4111.9  0.200  1   6933  0.954 1069.387207 2166.059326 1249.194458
  4.24693   2.46905   0.91237      4.80000      5.20000 2426.8  0.200  1   6763  1.779 1015.152588 2166.590820 1234.540894
  5.51530   1.01356   1.78596      5.20000      5.20000 2430.1  0.543  1   8558  1.831 1025.709473 2090.639404 1236.001343
  2.37170   2.13260   3.44548      5.60000      5.20000 3612.7  0.343  1   3558  1.033 1108.960815 2088.726074 1257.951416
  2.35521   2.13428   3.44186      6.00000      5.20000 4939.7  0.343  1   8553  1.006 1179.730591 2074.920166 1272.162354
  2.36658   2.12828   5.54274      6.40000      5.20000 5561.1  0.514  1   9204  0.906 1228.269287 2048.008057 1281.087891
  2.37047   2.12831   5.54220      6.80000      5.20000 5463.0  0.486  1   8282  0.921 1229.145386 2031.623657 1273.160278
  2.35506   2.12720   5.53922      7.20000      5.20000 4514.3  0.257  1   8060  1.249 1227.982422 2030.490112 1275.358154
  0.68279   1.67981   1.67065      7.60000      5.20000 4465.1  0.171  1  10586  1.687 1231.072388 2049.728027 1275.128296
  0.69920   1.68519   1.67372      8.00000      5.20000 5576.0  0.429  1   7462  1.222 1243.415527 2033.677612 1274.492188
  3.84381   1.45342   3.56285      8.40000      5.20000 6307.9  0.429  1   7560  1.359 1237.799805 2025.143188 1272.280029
  0.70045   1.68942   1.67557      8.80000      5.20000 6285.6  0.429  1   7572  1.265 1229.810303 2022.310303 1275.374390
  3.83674   1.45179   3.56314      9.20000      5.20000 6704.3  0.143  1   7875  1.527 1223.448486 1998.600586 1277.697388
  0.71019   1.68191   1.67113      9.60000      5.20000 6638.9  0.343  1   7967  1.119 1224.089478 1991.243530 1277.296997
  0.70523   1.68331   1.67337     10.00000      5.20000 6725.4  0.514  1   7517  0.862 1221.426758 1970.159912 1274.298218
  0.70462   1.68530   1.67387     10.40000      5.20000 7065.7  0.143  1   8966  1.418 1224.167847 1979.380493 1273.846313
  0.70689   1.68570   1.67494     10.80000      5.20000 6832.9  0.571  1   8994  0.877 1222.328369 1978.057861 1270.553833
  0.70869   1.67938   1.66951     11.20000      5.20000 6478.4  0.571  1  10649  0.881 1216.516235 1995.097290 1268.663574
  3.84149   1.45742   3.56436     11.60000      5.20000 5348.8  0.257  1  13073  1.224 1237.104614 2027.985474 1282.500366
  3.83001   1.46319   3.56379     12.00000      5.20000 3694.6  0.400  1  17073  0.961 1282.678101 2047.145752 1302.613525
  0.66182   1.31788   2.18936      0.00000      5.60000 3921.1  0.686  1   7845  0.990 1390.887085 2075.375732 1296.918335
  0.67217   1.31120   2.19080      0.40000      5.60000 4733.0  0.886  1   8488  0.825 1367.314331 2067.021729 1283.280029
  0.67170   1.31589   2.19134      0.80000      5.60000 5325.7  0.800  1   9485  0.624 1342.665894 2045.052246 1276.169067
  0.66916   1.31678   2.18822      1.20000      5.60000 4685.7  0.857  1   8890  0.437 1324.153076 2056.993164 1271.395874
  0.66916   1.31678   2.18822      1.60000      5.60000 4164.2  0.857  1   8303  1.888 1295.623047 2095.476074 1270.125000
  1.11129   0.66755   4.31085      2.00000      5.60000 4783.3  0.286  1   7068  1.483 1252.288330 2139.420166 1269.350098
  1.10290   0.67363   4.32864      2.40000      5.60000 5630.6  0.600  1   6037  1.374 1218.295044 2149.137939 1267.187134
  1.10290   0.67363   4.32864      2.80000      5.60000 5357.5  0.600  1   6416  0.556 1199.986938 2130.364746 1264.075439
  1.10212   0.66979   4.32161      3.20000      5.60000 5296.4  0.571  1   7948  0.759 1190.027832 2112.221680 1256.047363
  1.10212   0.66979   4.32161      3.60000      5.60000 5399.2  0.571  1   7324  1.514 1160.984741 2104.646484 1255.124023
  1.10398   0.66708   4.32608      4.00000      5.60000 4667.5  0.400  1   9097  0.833 1136.236816 2138.961670 1253.933228
  1.10398   0.66708   4.32608      4.40000      5.60000 4086.7  0.400  1  10090  1.495 1110.306519 2178.487549 1259.901855
  3.23127   1.18424   5.78034      4.80000      5.60000 2326.5  0.086  1   7499  2.047 1075.234009 2229.998047 1251.121338
  5.50050   0.99546   1.79473      5.20000      5.60000 2368.6  0.171  1   6871  2.035 1070.642578 2185.568604 1251.046265
  5.50050   0.99546   1.79473      5.60000      5.60000 3711.1  0.171  1   3173  1.550 1165.884155 2129.706299 1264.989624
  2.36482   2.14064   3.44053      6.00000      5.60000 4895.8  0.257  1  13637  1.172 1219.229614 2103.855469 1270.866577
  2.37283   2.13728   3.44395      6.40000      5.60000 5520.3  0.686  1   8691  0.898 1252.948853 2058.057861 1275.111450
  2.37712   2.13108   5.54192      6.80000      5.60000 5121.2  0.343  1   7437  1.151 1255.775391 2052.770020 1272.849487
  5.64231   2.65655   3.74266      7.20000      5.60000 4347.3  0.114  1   7529  1.911 1247.077881 2042.642944 1278.739746
  3.83802   1.46230   3.56804      7.60000      5.60000 4876.3  0.400  1   9409  0.993 1239.734863 2058.415527 1280.005249
  3.83623   1.45882   3.56309      8.00000      5.60000 5747.3  0.343  1   7423  1.048 1237.310303 2041.113281 1273.296387
  3.84187   1.45761   3.56184      8.40000      5.60000 6361.6  0.400  1   7621  1.171 1229.757690 2038.491089 1270.236938
  3.83783   1.44743   3.56040      8.80000      5.60000 6340.9  0.429  1   8101  1.282 1219.951538 2037.230103 1268.510254
  0.69729   1.69175   1.67316      9.20000      5.60000 6538.9  0.771  1   7805  0.801 1213.394897 2005.556152 1270.802368
  3.84247   1.45616   3.56490      9.60000      5.60000 6527.7  0.543  1   8091  0.836 1216.384033 1999.936890 1273.644409
  0.70758   1.68490   1.67439     10.00000      5.60000 6630.1  0.571  1   7805  0.755 1232.015625 1990.206665 1273.818115
  3.85682   1.46568   3.56519     10.40000      5.60000 6929.5  0.314  1   8662  1.026 1240.277100 2005.976563 1276.445557
  0.70792   1.68062   1.67017     10.80000      5.60000 6940.8  0.286  1   8829  1.333 1242.855347 1995.945190 1271.373535
  0.70793   1.68061   1.67017     11.20000      5.60000 6972.2  0.286  1  10018  1.250 1253.470581 1989.306885 1276.675415
  3.84825   1.46112   3.56530     11.60000      5.60000 6008.6  0.743  1  12331  0.905 1275.705200 2007.466309 1290.244263
  3.83226   1.44954   3.55898     12.00000      5.60000 4294.1  0.457  1  18557  1.006 1330.586670 2018.204590 1311.522583
  0.67414   1.31053   2.18852      0.00000      6.00000 4167.6  0.457  1   7814  0.952 1359.678711 2076.538330 1291.089355
  0.65854   1.31182   2.18689      0.40000      6.00000 5050.0  0.800  1   7817  0.744 1328.685791 2066.163574 1276.770508
  0.66069   1.31702   2.18942      0.80000      6.00000 5812.0  0.800  1   9657  0.516 1296.944824 2053.197021 1265.073364
  0.66083   1.32140   2.19239      1.20000      6.00000 5474.1  0.771  1   8107  0.675 1265.546021 2054.147461 1265.438354
  0.67018   1.32441   2.19271      1.60000      6.00000 4807.8  0.857  1   7909  0.537 1226.055298 2092.832764 1260.634766
  0.67018   1.32441   2.19271      2.00000      6.00000 3865.0  0.857  1   8625  1.880 1191.559082 2122.716309 1267.380005
  4.25290   2.47401   0.91473      2.40000      6.00000 5306.0  0.229  1   9288  1.103 1185.970093 2142.122070 1265.097290
  1.08895   0.67085   4.34135      2.80000      6.00000 5322.1  0.400  1   8007  0.797 1187.633301 2132.109375 1266.094482
  1.08984   0.66580   4.33607      3.20000      6.00000 5536.9  0.200  1   6779  1.001 1181.635132 2121.783203 1253.462891
  1.08984   0.66580   4.33607      3.60000      6.00000 5460.5  0.200  1   7658  0.897 1160.975342 2122.904297 1255.322876
  1.09835   0.66114   4.32752      4.00000      6.00000 4638.7  0.400  1   8026  0.685 1165.549438 2148.586914 1262.773071
  1.09835   0.66114   4.32752      4.40000      6.00000 4017.6  0.400  1   8119  0.874 1188.127075 2174.406250 1279.651611
  1.09835   0.66114   4.32752      4.80000      6.00000 2866.1  0.400  1  12961  1.774 1228.708008 2176.641602 1285.710571
  5.51383   1.00829   1.79452      5.20000      6.00000 2686.5  0.314  1  11732  2.065 1260.459595 2113.265137 1288.714966
  5.51383   1.00829   1.79452      5.60000      6.00000 3354.9  0.314  1  11061  0.988 1276.513306 2053.007080 1283.659424
  2.36906   2.13936   3.44409      6.00000      6.00000 4868.3  0.343  1   8850  1.102 1279.887573 2045.834595 1280.015503
  2.36130   2.13270   3.44536      6.40000      6.00000 5372.3  0.514  1   6550  0.894 1262.416016 2035.912842 1275.880493
  2.37702   2.12520   5.54625      6.80000      6.00000 4272.5  0.171  1   6389  1.354 1238.883179 2039.831665 1274.333496
  0.68832   1.68026   1.66756      7.20000      6.00000 4099.0  0.200  1   6650  1.783 1247.781738 2034.234741 1275.749390
  3.84008   1.45572   3.56372      7.60000      6.00000 4603.0  0.171  1   8669  1.114 1223.305664 2043.224854 1274.521606
  3.83480   1.45378   3.56526      8.00000      6.00000 5807.3  0.257  1   7232  1.058 1225.681396 2020.379517 1268.074219
  3.84850   1.45783   3.56281      8.40000      6.00000 6290.5  0.343  1   7682  1.014 1209.972778 2019.261719 1266.111084
  3.83778   1.45061   3.56280      8.80000      6.00000 6118.9  0.400  1   7883  1.110 1201.107666 2017.075439 1260.212524
  0.70093   1.69256   1.67536      9.20000      6.00000 6359.1  0.429  1   7480  1.225 1197.220337 1992.721680 1265.856323
  0.69422   1.69303   1.67357      9.60000      6.00000 6355.9  0.457  1   7434  1.007 1203.262451 1995.416016 1267.819336
  0.70461   1.69071   1.67343     10.00000      6.00000 6493.5  0.400  1   7023  0.965 1223.828491 2001.939697 1272.967529
  3.84758   1.45811   3.56430     10.40000      6.00000 6684.0  0.371  1   8113  1.064 1234.428589 2023.723389 1275.746216
  3.84398   1.45606   3.56595     10.80000      6.00000 7008.2  0.171  1   8198  1.287 1239.876831 2014.977295 1274.471069
  0.69561   1.68513   1.67178     11.20000      6.00000 7158.0  0.600  1   9438  1.098 1247.578491 2001.557129 1277.624756
  0.69993   1.69023   1.67265     11.60000      6.00000 6506.5  0.800  1  11440  0.809 1266.959473 2009.367554 1290.386230
  3.83135   1.45358   3.56551     12.00000      6.00000 5075.4  0.800  1  15421  0.443 1315.843750 2014.626709 1307.874268
  0.67126   1.31836   2.19152      0.00000      6.40000 4354.6  0.829  1   7174  0.558 1307.528198 2051.394531 1284.659058
  0.66300   1.31768   2.18849      0.40000      6.40000 5034.7  0.857  1   7961  0.513 1279.201294 2058.638916 1270.970947
  0.66234   1.31723   2.19033      0.80000      6.40000 5311.2  0.800  1   8383  0.552 1266.408813 2058.140137 1266.949951
  0.66132   1.31052   2.19303      1.20000      6.40000 5135.3  0.829  1   8224  0.831 1257.955688 2058.530029 1271.884521
  0.66629   1.31539   2.19131      1.60000      6.40000 4771.3  0.714  1   8706  0.618 1240.749634 2059.569824 1274.055420
  0.66629   1.31539   2.19131      2.00000      6.40000 3405.8  0.714  1   8828  1.501 1224.149536 2107.124023 1281.754883
  4.25290   2.47401   0.91473      2.40000      6.40000 4112.6  0.229  1  11173  1.897 1235.213745 2117.399902 1276.918457
  1.08895   0.67085   4.34135      2.80000      6.40000 5348.9  0.400  1   6785  0.678 1232.982422 2126.199219 1277.147705
  1.08984   0.66580   4.33607      3.20000      6.40000 5430.5  0.200  1   6784  0.803 1228.149292 2124.599365 1270.062256
  4.24332   2.48276   5.10179      3.60000      6.40000 5199.6  0.286  1   9016  0.883 1219.957520 2130.210693 1269.253296
  1.11068   0.65949   4.31140      4.00000      6.40000 4231.3  0.229  1   9701  0.725 1248.170044 2154.697510 1281.999390
  1.10632   0.66838   4.32202      4.40000      6.40000 4467.8  0.571  1   8095  1.151 1299.879761 2171.723389 1299.026123
  1.11284   0.66174   4.30813      4.80000      6.40000 4464.4  0.257  1  12289  0.818 1349.530151 2169.284912 1306.394165
  1.11284   0.66174   4.30813      5.20000      6.40000 4442.2  0.257  1  11110  1.470 1345.341919 2131.012451 1298.807495
  5.51383   1.00829   1.79452      5.60000      6.40000 3864.1  0.314  1   9591  1.791 1289.500854 2099.041504 1284.219604
  2.36464   2.13779   3.44552      6.00000      6.40000 4301.5  0.114  1   7436  1.355 1239.907227 2061.192627 1270.547729
  2.36737   2.13742   5.53715      6.40000      6.40000 4562.9  0.429  1   5972  0.760 1219.502441 2059.182129 1266.304443
  2.36737   2.13742   5.53715      6.80000      6.40000 4260.7  0.429  1   5981  1.818 1227.088013 2046.429565 1269.220215
  0.68832   1.68026   1.66756      7.20000      6.40000 4512.7  0.200  1   9403  1.128 1239.925903 2048.573486 1272.217529
  3.83289   1.45314   3.56485      7.60000      6.40000 5907.7  0.314  1   7268  1.056 1231.586792 2029.919922 1272.941650
  0.69131   1.68845   1.67113      8.00000      6.40000 6280.5  0.314  1   7441  1.111 1217.148682 2026.940063 1260.655029
  3.84802   1.45807   3.56261      8.40000      6.40000 6425.1  0.171  1   7509  1.358 1181.890259 2015.487915 1260.596924
  0.70643   1.68351   1.67338      8.80000      6.40000 6235.3  0.143  1   7534  1.358 1171.566406 2021.300537 1254.027832
  3.84229   1.45717   3.56495      9.20000      6.40000 5870.7  0.800  1   6994  0.801 1156.753662 2014.788086 1260.141968
  3.83478   1.44317   3.56187      9.60000      6.40000 6353.4  0.143  1   7149  1.260 1179.042725 2010.839966 1263.984985
  3.84735   1.45177   3.55969     10.00000      6.40000 6310.0  0.571  1   7020  0.701 1187.165161 2006.576294 1271.528931
  3.84744   1.45092   3.56173     10.40000      6.40000 6574.1  0.343  1   8331  0.906 1197.881958 2004.086426 1272.174072
  3.84758   1.45812   3.56431     10.80000      6.40000 6956.9  0.371  1   7921  1.143 1192.268188 2011.677490 1272.998779
  3.84856   1.45788   3.56286     11.20000      6.40000 6950.4  0.314  1   9121  1.145 1200.507324 2006.451782 1275.771118
  3.84046   1.45265   3.56312     11.60000      6.40000 6339.5  0.714  1  11597  0.871 1218.673340 2026.892822 1291.373413
  3.83653   1.45225   3.56355     12.00000      6.40000 4980.6  0.429  1  14281  1.023 1272.387451 2039.947998 1308.221924
  0.67670   1.31016   2.18664      0.00000      6.80000 4111.0  0.886  1   7502  0.567 1285.244385 2074.583008 1282.925293
  0.66417   1.31703   2.19251      0.40000      6.80000 4823.6  0.771  1   7790  0.799 1260.288696 2069.826904 1270.088989
  0.66887   1.30677   2.19145      0.80000      6.80000 5046.7  0.800  1   8175  0.747 1257.312500 2056.643555 1266.884644
  0.66869   1.30536   2.19916      1.20000      6.80000 5110.5  0.486  1   8471  0.887 1268.211670 2053.375000 1274.443848
  0.66804   1.29946   2.19380      1.60000      6.80000 4885.0  0.400  1   8662  0.844 1285.809692 2071.149170 1277.561523
  0.66080   1.31026   2.19345      2.00000      6.80000 4425.8  0.143  1   8939  1.306 1307.618042 2074.461670 1279.557617
  1.11131   0.65583   4.31692      2.40000      6.80000 3895.8  0.229  1   9543  1.761 1319.058838 2091.603271 1274.939087
  1.11131   0.65583   4.31692      2.80000      6.80000 5069.8  0.229  1   9045  0.918 1314.664795 2094.848877 1281.591919
  4.24332   2.48276   5.10179      3.20000      6.80000 5382.9  0.286  1   9526  0.752 1316.017822 2112.421143 1281.169067
  4.24332   2.48276   5.10179      3.60000      6.80000 4841.0  0.286  1  11095  0.838 1311.079224 2120.471436 1283.698730
  4.25144   2.47490   5.10387      4.00000      6.80000 4544.3  0.486  1  11697  0.895 1322.222534 2146.263672 1285.207275
  1.10632   0.66838   4.32202      4.40000      6.80000 5333.7  0.571  1  13053  0.523 1341.295044 2163.397705 1294.070801
  1.10277   0.66870   4.32466      4.80000      6.80000 5751.8  0.600  1   9319  0.694 1353.832642 2161.823730 1296.898438
  1.10073   0.66772   4.32613      5.20000      6.80000 5821.2  0.200  1   7688  1.073 1328.080200 2131.054932 1288.914551
  4.25789   2.47889   0.92602      5.60000      6.80000 4699.8  0.143  1   8097  1.423 1239.639282 2098.274170 1277.336792
  1.12037   0.65571   4.30200      6.00000      6.80000 3973.1  0.229  1   5862  1.554 1193.398804 2076.513428 1266.316406
  2.36737   2.13742   5.53715      6.40000      6.80000 3836.4  0.429  1   4254  1.555 1181.456177 2067.620117 1262.744385
  0.67925   1.68725   1.67156      6.80000      6.80000 4276.2  0.229  1  11503  1.057 1215.729248 2041.959106 1265.943726
  3.83995   1.45456   3.56620      7.20000      6.80000 5700.0  0.171  1   7926  1.516 1233.487915 2039.292603 1268.720215
  0.69872   1.68708   1.67228      7.60000      6.80000 6383.9  0.400  1   7045  1.145 1226.043823 2021.208130 1271.068481
  3.84666   1.45884   3.56455      8.00000      6.80000 6643.5  0.429  1   7430  1.117 1206.305298 2028.281128 1264.483398
  0.71011   1.67715   1.67012      8.40000      6.80000 6695.4  0.171  1   7762  1.276 1172.158203 2019.991699 1262.822998
  3.85024   1.46516   3.56500      8.80000      6.80000 6396.6  0.171  1   8696  1.370 1154.173218 2022.753174 1260.319702
  3.84199   1.45731   3.56476      9.20000      6.80000 5899.6  0.571  1   6199  0.786 1141.785034 2013.579590 1258.764282
  3.83636   1.44780   3.55974      9.60000      6.80000 6230.9  0.571  1   7604  0.718 1174.449463 2012.186768 1263.635986
  3.83637   1.44780   3.55975     10.00000      6.80000 6624.3  0.571  1   6138  0.764 1185.571655 1998.400635 1269.732666
  0.70490   1.69179   1.67469     10.40000      6.80000 6985.8  0.343  1   9171  0.904 1198.122437 2002.371216 1276.425171
  0.70130   1.69041   1.67461     10.80000      6.80000 7197.8  0.229  1   9455  1.001 1188.385742 2011.704712 1280.338135
  0.69828   1.68994   1.67378     11.20000      6.80000 6845.3  0.714  1  10722  0.710 1180.572510 2037.069092 1277.952515
  0.69427   1.69300   1.67353     11.60000      6.80000 6291.6  0.400  1  12279  0.997 1184.163208 2068.338867 1290.454590
  3.83888   1.45309   3.56134     12.00000      6.80000 4904.3  0.400  1  15804  1.010 1230.373413 2085.583984 1301.437622
  0.67342   1.31343   2.19285      0.00000      7.20000 3715.9  0.714  1   7164  0.885 1239.966553 2071.065674 1283.358521
  0.67065   1.30578   2.19855      0.40000      7.20000 4438.5  0.486  1   7102  1.020 1202.872925 2057.822266 1269.143799
  0.66583   1.31562   2.20070      0.80000      7.20000 4939.8  0.286  1   8690  1.062 1213.497437 2034.508301 1269.029175
  0.66869   1.30536   2.19916      1.20000      7.20000 4852.9  0.486  1   8487  1.465 1256.081299 2036.155151 1276.367065
  0.66914   1.30828   2.19580      1.60000      7.20000 4984.9  0.400  1   8730  0.910 1305.614258 2057.470459 1281.386353
  0.66137   1.31171   2.19382      2.00000      7.20000 4764.1  0.400  1   9125  0.963 1341.236206 2062.156250 1279.971069
  0.66137   1.31171   2.19382      2.40000      7.20000 4224.7  0.400  1   9344  1.711 1342.774170 2082.984375 1277.838501
  4.24395   2.48226   4.57206      2.80000      7.20000 4620.7  0.200  1   9827  1.337 1344.133789 2091.655273 1285.878174
  1.09415   0.66761   4.33375      3.20000      7.20000 5135.3  0.400  1   9187  0.730 1349.341064 2111.159424 1287.430420
  1.09415   0.66761   4.33375      3.60000      7.20000 5612.2  0.400  1   8431  0.697 1353.091553 2111.830078 1285.159058
  1.10464   0.66681   4.32255      4.00000      7.20000 5756.0  0.571  1   8860  0.653 1349.687378 2134.698242 1283.574951
  1.10482   0.66917   4.32360      4.40000      7.20000 6161.7  0.571  1   9118  0.551 1351.550049 2151.656494 1290.475342
  1.10128   0.66905   4.32747      4.80000      7.20000 6260.5  0.257  1   8674  0.854 1347.308105 2142.748047 1297.350830
  1.10328   0.66710   4.32338      5.20000      7.20000 6912.8  0.200  1   7885  0.925 1305.597412 2148.869385 1279.762329
  1.11069   0.65880   4.31700      5.60000      7.20000 6113.1  0.143  1   7781  1.074 1232.259277 2148.929932 1266.006714
  1.12037   0.65571   4.30200      6.00000      7.20000 3971.4  0.229  1   8606  1.003 1179.738281 2113.211182 1257.981689
  0.69577   1.69061   1.68176      6.40000      7.20000 4016.9  0.171  1   9800  1.380 1190.888062 2077.070068 1263.009521
  0.69587   1.68772   3.76229      6.80000      7.20000 5600.4  0.371  1   8392  1.441 1233.574829 2038.613037 1270.488647
  0.69580   1.69093   1.67283      7.20000      7.20000 6418.9  0.114  1   7250  1.670 1244.976807 2047.516479 1272.869995
  0.69538   1.69175   1.67315      7.60000      7.20000 6915.4  0.429  1   6542  1.151 1234.084839 2045.015991 1274.306274
  3.83782   1.44791   3.56090      8.00000      7.20000 7156.2  0.371  1   7596  1.099 1222.661987 2042.154419 1268.947632
  0.69993   1.68133   1.67112      8.40000      7.20000 6967.0  0.429  1   9574  1.219 1204.962646 2036.318604 1265.958374
  0.69603   1.69309   1.67412      8.80000      7.20000 6675.2  0.143  1   8058  1.485 1201.618164 2043.696167 1267.659668
  3.83349   1.44899   3.56128      9.20000      7.20000 6523.7  0.457  1   9046  0.986 1205.295288 2051.422119 1267.532593
  3.83567   1.44335   3.56153      9.60000      7.20000 6717.9  0.343  1   8838  1.060 1223.857666 2027.219971 1274.095947
  3.83120   1.44554   3.56367     10.00000      7.20000 7059.1  0.343  1  10711  1.063 1220.684448 2000.173706 1275.607910
  3.83983   1.44900   3.56211     10.40000      7.20000 6974.5  0.629  1   7064  0.668 1212.548584 1994.293213 1282.374756
  3.83093   1.44790   3.56285     10.80000      7.20000 7072.6  0.629  1   8361  0.622 1189.626099 1997.807007 1280.131348
  0.69751   1.68825   1.67599     11.20000      7.20000 6693.2  0.514  1  10408  0.895 1167.527222 2021.736206 1279.381470
  3.83353   1.45154   3.56087     11.60000      7.20000 5804.8  0.686  1  12380  0.642 1160.427856 2044.537842 1286.562866
  0.69541   1.70903   5.87377     12.00000      7.20000 4232.2  0.457  1  14730  1.136 1198.746460 2083.644287 1301.687866
  0.67344   1.30891   2.20160      0.00000      7.60000 3499.7  0.143  1   5197  1.435 1193.715088 2084.003662 1279.944092
  0.67200   1.31292   2.20263      0.40000      7.60000 4297.7  0.486  1   4580  1.430 1149.775879 2056.233154 1265.659790
  0.66464   1.31368   2.20067      0.80000      7.60000 4813.8  0.429  1   7270  0.999 1175.354492 2026.284180 1268.644043
  0.66332   1.30044   2.19672      1.20000      7.60000 4295.5  0.343  1   5773  0.957 1272.522827 2032.420410 1281.504028
  0.67087   1.31293   2.19856      1.60000      7.60000 4863.6  0.343  1  10054  0.787 1291.317139 2051.459473 1275.730957
  0.66261   1.31759   2.19450      2.00000      7.60000 4956.8  0.800  1   8669  0.649 1313.484985 2059.402344 1276.416382
  0.67286   1.30925   2.18825      2.40000      7.60000 4552.3  0.343  1   8711  1.027 1305.987915 2069.393555 1276.006592
  0.67286   1.30925   2.18825      2.80000      7.60000 4232.4  0.343  1   8518  1.525 1303.840088 2081.074951 1285.327393
  1.09516   0.66506   4.33221      3.20000      7.60000 4925.3  0.400  1   7844  1.711 1316.738403 2091.265381 1285.992065
  1.09516   0.66506   4.33221      3.60000      7.60000 5786.5  0.400  1   7606  0.640 1322.812744 2102.747803 1282.058228
  1.09841   0.66675   4.33090      4.00000      7.60000 5799.4  0.429  1   8481  0.590 1330.751831 2122.571533 1274.564331
  1.10273   0.66884   4.32522      4.40000      7.60000 6668.3  0.543  1   7862  0.527 1294.134521 2138.843018 1275.333008
  1.09787   0.66803   4.32926      4.80000      7.60000 7153.1  0.257  1   8393  0.806 1276.549561 2164.857666 1277.806885
  1.09151   0.66200   4.33404      5.20000      7.60000 7084.3  0.257  1   8370  0.824 1249.659546 2153.735107 1274.877075
  1.08703   0.66144   4.33651      5.60000      7.60000 5876.5  0.371  1   8286  1.010 1226.441772 2137.387939 1273.988281
  1.05136   1.43362   2.75500      6.00000      7.60000 3743.7  0.114  1   8765  1.752 1225.300049 2070.035889 1272.385986
  0.69422   1.68680   3.76408      6.40000      7.60000 4085.8  0.286  1  10509  1.216 1241.815796 2037.854858 1275.726074
  0.69587   1.68772   3.76229      6.80000      7.60000 5429.8  0.371  1   7625  1.505 1253.410889 2022.934082 1269.253906
  0.70074   1.69037   3.76702      7.20000      7.60000 5792.7  0.314  1   7294  1.199 1247.716919 2026.886353 1272.326416
  0.69726   1.69811   3.76895      7.60000      7.60000 6121.8  0.400  1   7045  1.137 1240.890869 2022.530029 1273.644165
  0.69343   1.69108   5.86240      8.00000      7.60000 6207.2  0.343  1   7686  1.240 1234.770264 2023.761719 1274.758057
  0.69974   1.68386   1.67389      8.40000      7.60000 6930.6  0.171  1   9830  1.468 1221.222778 2027.599365 1271.149780
  3.83498   1.44897   3.55995      8.80000      7.60000 6913.7  0.171  1   7712  1.206 1220.500977 2022.620117 1271.710693
  3.83950   1.45594   3.56159      9.20000      7.60000 7078.0  0.171  1   9103  1.380 1231.562622 2034.668457 1271.291504
  3.83748   1.44727   3.56027      9.60000      7.60000 7236.9  0.143  1   8849  1.419 1244.758911 2026.391357 1274.312622
  3.84036   1.45456   3.56375     10.00000      7.60000 7332.2  0.371  1   9470  1.147 1234.909668 2028.133911 1274.452637
  3.83711   1.44894   3.55768     10.40000      7.60000 7283.4  0.429  1   7108  1.215 1213.888916 2015.588501 1277.593750
  0.69781   1.69169   1.67607     10.80000      7.60000 7121.0  0.286  1   7856  1.084 1189.338745 2021.929565 1274.441040
  3.84120   1.45134   3.55887     11.20000      7.60000 6543.7  0.714  1  10421  0.738 1169.472412 2028.668091 1277.288330
  0.69468   1.69055   1.67759     11.60000      7.60000 5578.0  0.457  1  10165  0.983 1155.953369 2051.796631 1287.313110
  0.68999   1.70469   5.86991     12.00000      7.60000 4062.2  0.457  1  23601  0.864 1183.974731 2064.946533 1308.191406
  0.66803   1.31023   2.19273      0.00000      8.00000 3271.7  0.286  1   4143  1.777 1123.919312 2057.861084 1277.456299
  0.67200   1.31292   2.20263      0.40000      8.00000 4029.8  0.486  1   1500  1.691 1093.669312 2048.156738 1262.328979
  0.67107   1.31559   2.19806      0.80000      8.00000 4744.5  0.457  1   9679  1.133 1151.302368 2021.725098 1268.940308
  0.66481   1.31645   2.20063      1.20000      8.00000 4762.6  0.714  1  11378  1.174 1229.146729 2019.955811 1267.293457
  0.66481   1.31645   2.20063      1.60000      8.00000 4798.7  0.714  1   8652  0.826 1255.800171 2016.244751 1270.471558
  0.65496   1.31628   2.19747      2.00000      8.00000 5045.6  0.743  1   7404  0.534 1262.877686 2031.192505 1271.019531
  0.65878   1.32072   2.19535      2.40000      8.00000 4739.6  0.886  1   8036  0.760 1235.082031 2039.322510 1273.661743
  0.65878   1.32072   2.19535      2.80000      8.00000 4302.6  0.886  1   6740  1.454 1225.444092 2059.303467 1275.225464
  0.66149   1.31832   2.18717      3.20000      8.00000 4533.4  0.086  1   6923  1.214 1232.550903 2090.597900 1268.951782
  1.09703   0.66185   4.32735      3.60000      8.00000 5459.2  0.571  1   7685  0.785 1246.232910 2117.339844 1263.900146
  1.09703   0.66185   4.32735      4.00000      8.00000 5879.8  0.571  1   8246  0.448 1253.015503 2149.445313 1265.874023
  1.09599   0.66201   4.32784      4.40000      8.00000 6188.7  0.571  1   8006  0.308 1249.916748 2151.272217 1274.085815
  1.09550   0.65638   4.32895      4.80000      8.00000 6672.9  0.257  1   7972  0.667 1244.844727 2173.267578 1280.075684
  1.08949   0.65745   4.33265      5.20000      8.00000 5859.5  0.286  1   8428  0.919 1254.765503 2150.321045 1280.641968
  1.08949   0.65745   4.33265      5.60000      8.00000 5259.5  0.286  1   7251  0.656 1233.875488 2117.412598 1275.863281
  0.67889   1.69327   1.67210      6.00000      8.00000 3267.7  0.457  1   7085  1.504 1246.278198 2045.954224 1277.518433
  0.67889   1.69327   1.67210      6.40000      8.00000 5167.1  0.457  1   8766  1.264 1249.203979 2031.423706 1277.990479
  0.69926   1.69093   3.76293      6.80000      8.00000 5753.6  0.143  1   8169  1.589 1231.182617 2025.442749 1270.172363
  0.70043   1.68358   5.85724      7.20000      8.00000 5815.4  0.400  1   6705  1.219 1214.583130 2040.368652 1267.648193
  0.70042   1.68400   3.76328      7.60000      8.00000 5985.6  0.371  1   7072  1.236 1213.330566 2028.645386 1265.791870
  0.69559   1.69418   5.86211      8.00000      8.00000 6060.9  0.400  1   7279  1.051 1226.163940 2012.582520 1269.257690
  0.69171   1.68770   5.86128      8.40000      8.00000 5926.6  0.114  1   8096  1.514 1232.729126 2017.549438 1267.862549
  0.69596   1.69155   1.67354      8.80000      8.00000 7085.2  0.171  1   8222  1.188 1237.102295 2022.821411 1269.695190
  0.69256   1.69576   1.67406      9.20000      8.00000 7146.6  0.429  1   5986  1.056 1243.031616 2053.656494 1270.835571
  0.70241   1.68912   1.67478      9.60000      8.00000 7548.5  0.429  1   7470  1.088 1239.104492 2031.974731 1271.437500
  0.70695   1.68373   1.67316     10.00000      8.00000 7264.6  0.314  1   8765  1.145 1221.378052 2039.415527 1272.090942
  0.69961   1.68957   1.67571     10.40000      8.00000 7123.4  0.400  1   7617  1.176 1189.519287 2026.005737 1276.814453
  0.69879   1.68701   1.67222     10.80000      8.00000 6863.9  0.371  1   6290  1.204 1168.179321 2038.597656 1274.560913
  3.84412   1.45221   3.56000     11.20000      8.00000 6468.8  0.743  1  11778  0.681 1152.337036 2020.229858 1277.137207
  3.83940   1.45858   3.56264     11.60000      8.00000 5386.4  0.286  1  13609  0.960 1140.111816 2036.572266 1280.815552
  0.68764   1.69688   5.86709     12.00000      8.00000 3344.1  0.286  1  23016  0.866 1153.021973 2041.300537 1305.630493
  0.66803   1.31023   2.19273      0.00000      8.40000 3064.0  0.286  1   7616  1.163 1203.900635 2135.900146 1288.642090
  0.67663   1.31243   2.19354      0.40000      8.40000 3838.8  0.429  1   5519  1.149 1146.976807 2105.671143 1272.173584
  0.67107   1.31559   2.19806      0.80000      8.40000 4659.1  0.457  1   9726  0.858 1173.755249 2080.145020 1265.516602
  0.66651   1.31636   2.19321      1.20000      8.40000 4638.7  0.429  1   6411  1.250 1209.324829 2057.490479 1254.576904
  0.66364   1.31447   2.19218      1.60000      8.40000 4840.4  0.857  1   7035  0.781 1220.670410 2044.505981 1258.769287
  0.66553   1.31247   2.19541      2.00000      8.40000 5023.4  0.829  1   6656  0.529 1216.230591 2028.936157 1260.711304
  0.65986   1.31962   2.19669      2.40000      8.40000 4960.2  0.771  1   7000  0.590 1196.561523 2010.511597 1264.736572
  0.65904   1.31711   2.18940      2.80000      8.40000 4789.1  0.800  1   7225  0.652 1197.177979 2033.486572 1262.222046
  0.66339   1.32406   2.19341      3.20000      8.40000 3979.9  0.886  1   5199  1.995 1224.486694 2088.601807 1258.722656
  1.10166   0.65341   4.31888      3.60000      8.40000 4194.3  0.371  1   8525  1.738 1238.005981 2140.865234 1262.332153
  1.10166   0.65341   4.31888      4.00000      8.40000 4549.0  0.371  1   7716  0.622 1253.708496 2168.892334 1265.598267
  1.10341   0.65777   1.17524      4.40000      8.40000 4981.1  0.114  1   7419  0.985 1247.049805 2174.336914 1271.314575
  1.09550   0.65638   4.32895      4.80000      8.40000 5508.1  0.257  1   8519  0.827 1246.819458 2188.182373 1275.170532
  3.17090   0.63793   1.23117      5.20000      8.40000 5184.3  0.171  1   9429  1.221 1248.338135 2169.478516 1278.653564
  1.08949   0.65745   4.33265      5.60000      8.40000 3721.9  0.286  1  11797  1.556 1252.480835 2098.017334 1279.213379
  0.69687   1.68377   3.76699      6.00000      8.40000 3257.4  0.714  1   9972  1.872 1256.536133 2053.215332 1280.363525
  0.69687   1.68377   3.76699      6.40000      8.40000 4412.5  0.714  1   7083  0.977 1255.896973 2017.158447 1273.557495
  0.70434   1.68438   3.75667      6.80000      8.40000 5754.4  0.143  1   7014  1.477 1238.739868 2022.912964 1267.999756
  0.70542   1.68593   5.85835      7.20000      8.40000 5922.5  0.400  1   6611  1.207 1226.774414 2029.060791 1267.506958
  0.70629   1.68378   5.86249      7.60000      8.40000 5954.1  0.743  1   6189  0.932 1223.464233 2020.090942 1271.468506
  0.70664   1.68668   5.86115      8.00000      8.40000 6102.6  0.286  1   9495  1.139 1228.874146 2018.162842 1276.204956
  0.70212   1.69097   1.67510      8.40000      8.40000 7058.3  0.400  1   7969  1.166 1230.927856 2018.768066 1273.163330
  0.70465   1.68255   1.67174      8.80000      8.40000 7440.9  0.114  1   8776  1.357 1225.431274 2002.173096 1273.195923
  0.70268   1.69385   1.67524      9.20000      8.40000 7420.8  0.143  1   9763  1.307 1215.644775 2013.229004 1266.350586
  0.70269   1.69385   1.67523      9.60000      8.40000 7577.4  0.143  1   6994  1.297 1206.735229 2003.856079 1264.193970
  0.70707   1.68437   1.67237     10.00000      8.40000 7074.4  0.743  1   7111  0.876 1189.509277 2030.902466 1261.642334
  0.70310   1.68829   1.67426     10.40000      8.40000 7356.5  0.343  1   7299  1.054 1182.607666 2033.474854 1268.492432
  3.84504   1.46207   3.56486     10.80000      8.40000 6801.0  0.257  1  10109  1.120 1159.428955 2048.019531 1272.375000
  0.70935   1.67522   1.66997     11.20000      8.40000 6385.4  0.429  1  10384  1.086 1149.033203 2043.274780 1276.499268
  3.84313   1.46680   3.56499     11.60000      8.40000 4935.0  0.229  1  12901  1.001 1140.035767 2059.610352 1284.950317
  0.68764   1.69688   5.86709     12.00000      8.40000 2670.3  0.286  1  19667  1.792 1150.541382 2055.260498 1304.516357
  0.66734   1.32295   2.18966      0.00000      8.80000 3176.1  0.657  1   9858  0.973 1295.751709 2117.396240 1294.167603
  0.65563   1.32379   2.19523      0.40000      8.80000 4579.9  0.457  1   6694  1.023 1223.669067 2083.223389 1276.447998
  0.66526   1.31026   2.20139      0.80000      8.80000 5139.1  0.857  1   5417  0.807 1193.290405 2056.639648 1269.787598
  0.67605   1.29751   2.18767      1.20000      8.80000 5195.3  0.286  1   2751  1.175 1202.281982 2045.263062 1256.099976
  0.65735   1.31392   2.19468      1.60000      8.80000 5307.0  0.457  1   7193  1.081 1207.868652 2027.897095 1258.552002
  0.66287   1.30949   2.18685      2.00000      8.80000 5322.5  0.343  1   7060  0.809 1212.645142 2017.167603 1257.283447
  0.66190   1.31688   2.19123      2.40000      8.80000 5194.6  0.829  1   5730  0.482 1208.744995 2020.097046 1267.405762
  0.66692   1.31517   2.19190      2.80000      8.80000 5105.8  0.829  1   9467  0.457 1236.585571 2031.822876 1264.020996
  0.66339   1.32406   2.19341      3.20000      8.80000 4047.2  0.886  1   8651  0.833 1253.557617 2093.814209 1263.000244
  0.66339   1.32406   2.19341      3.60000      8.80000 3547.9  0.886  1   8314  1.688 1263.733276 2138.430908 1262.860718
  1.10166   0.65341   4.31888      4.00000      8.80000 4633.0  0.371  1   7708  2.156 1270.299316 2187.535889 1268.592285
  3.17636   0.63524   1.23025      4.40000      8.80000 4831.7  0.143  1   7385  1.430 1276.401855 2193.361572 1271.991211
  3.18428   0.63839   1.22445      4.80000      8.80000 5057.7  0.143  1   8163  1.469 1270.531250 2189.581787 1273.534180
  3.17090   0.63793   1.23117      5.20000      8.80000 4797.6  0.171  1   8800  1.269 1273.574585 2166.822998 1276.216797
  0.69212   1.69542   3.77337      5.60000      8.80000 3164.7  0.171  1   9455  1.635 1260.318970 2089.943359 1271.733032
  0.69212   1.69542   3.77337      6.00000      8.80000 4596.3  0.171  1   9037  1.261 1261.042236 2047.659180 1277.885010
  0.69171   1.68672   3.76328      6.40000      8.80000 4700.8  0.714  1   7015  0.757 1255.173340 2010.781250 1271.349854
  0.69570   1.67425   1.67171      6.80000      8.80000 6852.9  0.143  1   7785  1.441 1252.390259 2019.858521 1272.233154
  0.69418   1.68302   5.85963      7.20000      8.80000 6003.5  0.429  1   8639  1.088 1247.406494 2011.655396 1268.532959
  0.69453   1.68517   5.85893      7.60000      8.80000 6215.3  0.400  1   9402  1.126 1246.664307 2026.938843 1274.032227
  0.70647   1.68477   1.67428      8.00000      8.80000 7329.4  0.714  1   7836  0.838 1250.000732 2011.048096 1277.442383
  0.70389   1.68280   1.67095      8.40000      8.80000 7682.7  0.743  1   7206  0.831 1261.209473 2014.402710 1273.483032
  0.70090   1.68933   1.67286      8.80000      8.80000 7869.9  0.629  1   7956  0.749 1254.697510 2002.192261 1274.337769
  0.70290   1.69136   1.67383      9.20000      8.80000 7724.9  0.686  1   7790  0.656 1235.019531 2022.047241 1271.920410
  0.70491   1.69008   1.67277      9.60000      8.80000 7725.4  0.371  1   6468  0.929 1216.723145 2019.120850 1272.536377
  0.70695   1.68372   1.67316     10.00000      8.80000 7408.7  0.371  1   8230  1.149 1211.038330 2035.417358 1268.826904
  0.70696   1.68371   1.67316     10.40000      8.80000 7550.6  0.371  1   9489  1.149 1219.241943 2024.726685 1277.552734
  3.84422   1.45888   3.56394     10.80000      8.80000 7288.4  0.371  1   8807  1.160 1218.918823 2032.375732 1285.170410
  3.84297   1.46344   3.56706     11.20000      8.80000 6919.1  0.429  1   9645  1.047 1210.059448 2025.673096 1294.452759
  3.84297   1.46344   3.56706     11.60000      8.80000 5543.5  0.429  1  15152  1.579 1201.409180 2054.953857 1298.103516
  3.84267   1.46896   3.55626     12.00000      8.80000 2516.4  0.200  1  23354  1.139 1187.291138 2061.980225 1310.353882
  0.67041   1.30901   2.18298      0.00000      9.20000 4700.5  0.829  1   6855  0.747 1341.302490 2061.659424 1296.366211
  0.67013   1.30659   2.18560      0.40000      9.20000 5523.2  0.829  1   7111  0.695 1292.455811 2041.317627 1281.558105
  0.66051   1.30142   2.18955      0.80000      9.20000 5762.9  0.857  1   8451  0.618 1248.332520 2033.101074 1274.318604
  0.66276   1.30734   2.19053      1.20000      9.20000 5884.0  0.857  1   9697  0.524 1240.631958 2034.713135 1267.360229
  0.66766   1.30607   2.18997      1.60000      9.20000 5533.3  0.857  1   6896  0.734 1227.712891 2041.339233 1263.295044
  0.66400   1.30844   2.18908      2.00000      9.20000 5803.8  0.714  1   7338  0.581 1256.389160 2017.083618 1270.959351
  0.66478   1.30677   2.18845      2.40000      9.20000 5591.2  0.714  1  10064  0.579 1257.220581 2047.898438 1278.847412
  0.65949   1.30653   2.18897      2.80000      9.20000 5595.8  0.857  1   6867  0.551 1266.897583 2054.266602 1272.598022
  0.67337   1.31190   2.19787      3.20000      9.20000 4642.3  0.343  1   6963  1.182 1254.285889 2089.933105 1266.057007
  0.67337   1.31190   2.19787      3.60000      9.20000 4207.4  0.343  1   6905  1.616 1241.143677 2129.004150 1261.671875
  3.18473   0.64100   1.22324      4.00000      9.20000 5792.8  0.086  1   6786  1.211 1239.419556 2178.530762 1262.266846
  3.17822   0.64175   3.32344      4.40000      9.20000 6418.0  0.429  1   7052  1.387 1240.578369 2192.479248 1265.009155
  3.17822   0.64175   3.32344      4.80000      9.20000 6261.1  0.429  1   7127  1.027 1238.443604 2193.601318 1267.091797
  0.03624   2.50140   1.91688      5.20000      9.20000 6147.2  0.143  1   7001  1.229 1245.076782 2176.778320 1273.258545
  0.03624   2.50140   1.91688      5.60000      9.20000 4436.1  0.143  1   7067  1.712 1235.514771 2106.542480 1273.633667
  0.69212   1.69542   3.77337      6.00000      9.20000 5574.9  0.171  1   5798  1.616 1243.740845 2064.001953 1277.854614
  0.69171   1.68672   3.76328      6.40000      9.20000 5892.1  0.714  1   7417  1.443 1255.323242 2016.879150 1271.343994
  0.69536   1.68392   1.67479      6.80000      9.20000 7346.7  0.171  1   8229  1.319 1268.582764 2017.380371 1273.256958
  0.70597   1.68083   1.67364      7.20000      9.20000 7457.7  0.371  1   7646  1.003 1272.673706 1994.359375 1272.988159
  0.70417   1.68399   1.67206      7.60000      9.20000 7727.9  0.457  1   7337  1.039 1270.463379 2014.024170 1280.061890
  0.70382   1.68790   1.67519      8.00000      9.20000 7917.6  0.743  1   7185  0.822 1267.826538 2009.729004 1279.754639
  0.70236   1.68190   1.67335      8.40000      9.20000 8288.2  0.743  1   6998  0.969 1272.284668 1998.979126 1279.830933
  0.70437   1.68706   1.67440      8.80000      9.20000 8447.5  0.429  1   7531  1.015 1267.436157 1988.853394 1283.930176
  0.70240   1.68912   1.67479      9.20000      9.20000 8282.5  0.429  1   8259  1.027 1256.868164 1998.747803 1285.196899
  0.70241   1.68911   1.67478      9.60000      9.20000 8177.5  0.429  1  11087  1.088 1259.475830 2027.354736 1285.171875
  0.70598   1.68347   1.67171     10.00000      9.20000 8275.1  0.429  1  10763  1.088 1271.106812 2020.842651 1277.072876
  0.70685   1.68232   1.67315     10.40000      9.20000 8224.6  0.714  1   7888  0.837 1285.878662 2007.474365 1281.010376
  0.70653   1.68471   1.67422     10.80000      9.20000 8035.5  0.714  1   9224  0.838 1286.541992 1998.953857 1286.089844
  0.70371   1.68587   1.67410     11.20000      9.20000 6873.0  0.143  1  11677  1.376 1255.094849 2025.562256 1289.465454
  0.69747   1.67877   1.67209     11.60000      9.20000 6018.5  0.371  1  16409  1.100 1275.964478 2046.664307 1307.007935
  0.71013   1.66755   1.67277     12.00000      9.20000 3630.6  0.143  1  22119  1.507 1263.327026 2065.479980 1321.662231
  0.66927   1.30798   2.18852      0.00000      9.60000 5013.7  0.686  1   7961  0.896 1326.866699 2028.947388 1289.838379
  0.66669   1.29775   2.18800      0.40000      9.60000 5801.4  0.857  1   5113  0.525 1291.988770 2024.775269 1279.248901
  0.65794   1.30257   2.19036      0.80000      9.60000 6188.2  0.857  1   7871  0.464 1287.027222 2017.107300 1276.570923
  0.66055   1.30763   2.18665      1.20000      9.60000 6350.4  0.857  1   8827  0.481 1284.447998 2044.441040 1275.330322
  0.66895   1.30285   2.19013      1.60000      9.60000 6166.3  0.857  1   7051  0.490 1277.607178 2047.807251 1279.036621
  0.66609   1.30455   2.18814      2.00000      9.60000 6153.6  0.857  1   6692  0.523 1261.871460 2052.880371 1281.423218
  0.66006   1.31333   2.18868      2.40000      9.60000 5777.0  0.714  1   7468  0.680 1241.881348 2053.265869 1284.372437
  0.66528   1.31340   2.18604      2.80000      9.60000 5662.7  0.829  1   6919  0.602 1223.259766 2047.815308 1276.539551
  0.66957   1.31041   2.19724      3.20000      9.60000 4677.9  0.371  1   6407  1.186 1188.232300 2076.082764 1264.462769
  5.78426   0.61204   1.31417      3.60000      9.60000 4199.4  0.114  1   5158  1.605 1167.361938 2112.515137 1256.774414
  0.04624   2.50558   1.93981      4.00000      9.60000 5799.6  0.286  1   3841  1.459 1170.945435 2174.362061 1258.213867
  0.05874   2.49469   1.92712      4.40000      9.60000 6276.8  0.143  1   5140  1.370 1180.349243 2177.417236 1262.198730
  3.17822   0.64175   3.32344      4.80000      9.60000 6565.1  0.429  1   5057  1.276 1184.148926 2187.347656 1262.240234
  0.03390   2.50618   1.92286      5.20000      9.60000 4538.3  0.314  1   5145  1.228 1185.017334 2153.399658 1263.943359
  0.03390   2.50618   1.92286      5.60000      9.60000 4117.8  0.314  1   8894  1.812 1199.603271 2142.834961 1267.702515
  0.71381   1.67285   1.68266      6.00000      9.60000 4506.1  0.257  1  11686  1.678 1226.690186 2112.465332 1279.032959
  0.71381   1.67285   1.68266      6.40000      9.60000 5792.5  0.257  1   8428  1.206 1246.543945 2054.606201 1279.515747
  0.69961   1.68373   1.67268      6.80000      9.60000 7090.2  0.429  1   6845  1.154 1268.251343 2029.224487 1281.515625
  3.84332   1.46141   3.56170      7.20000      9.60000 7690.5  0.314  1   7125  1.053 1272.418091 1992.821289 1275.513550
  0.69422   1.68889   1.67504      7.60000      9.60000 8425.2  0.429  1   7278  1.183 1276.053955 2006.888672 1276.682739
  3.83599   1.45161   3.56294      8.00000      9.60000 8482.3  0.429  1   7307  1.187 1276.759888 2005.937500 1275.708252
  0.70239   1.68913   1.67481      8.40000      9.60000 8627.4  0.429  1   7681  1.027 1282.078247 1998.660767 1281.083984
  0.70081   1.68944   1.67336      8.80000      9.60000 8696.4  0.343  1   7796  1.110 1285.397705 2001.754028 1286.041992
  0.70602   1.68079   1.67360      9.20000      9.60000 8832.5  0.429  1   8241  1.025 1289.459839 2013.907104 1292.138672
  0.70241   1.68911   1.67478      9.60000      9.60000 8874.0  0.429  1   8680  1.088 1299.720459 2034.386597 1294.333984
  0.70190   1.68672   1.67416     10.00000      9.60000 8987.6  0.429  1   8611  1.126 1313.517578 2017.342041 1290.729614
  0.70388   1.68786   1.67515     10.40000      9.60000 8992.2  0.743  1   8021  0.822 1331.190308 1983.024780 1292.518677
  3.83838   1.45057   3.56199     10.80000      9.60000 9045.5  0.771  1   8456  0.868 1340.332520 1986.032227 1293.061279
  3.83663   1.44851   3.56231     11.20000      9.60000 8703.3  0.743  1  10636  0.764 1351.448242 1994.463745 1305.113770
  0.70329   1.68881   1.67403     11.60000      9.60000 7495.5  0.800  1  14035  0.619 1352.969482 2050.004395 1313.338745
  0.70091   1.68780   1.67243     12.00000      9.60000 5430.9  0.771  1  23794  0.702 1356.774048 2057.960205 1331.506714
  0.64582   1.32399   2.19200      0.00000     10.00000 4717.8  0.143  1   4131  1.433 1294.679565 2024.499146 1286.678833
  0.66152   1.30024   2.18884      0.40000     10.00000 5731.9  0.714  1   4245  0.626 1272.087158 2011.388550 1274.522949
  0.66184   1.30060   2.18729      0.80000     10.00000 6284.9  0.857  1   7728  0.377 1282.448120 2007.660400 1271.163818
  0.66145   1.30743   2.18727      1.20000     10.00000 6491.0  0.857  1   7853  0.423 1279.463257 2039.246704 1273.247803
  0.66289   1.30725   2.18709      1.60000     10.00000 6331.7  0.857  1   7618  0.466 1260.701538 2051.151611 1280.773804
  0.66303   1.31101   2.19015      2.00000     10.00000 6292.6  0.829  1   7024  0.605 1238.959473 2047.094971 1287.320923
  0.66182   1.30830   2.19074      2.40000     10.00000 6055.4  0.829  1   6914  0.673 1211.009033 2022.711304 1284.164551
  0.65611   1.30894   2.19033      2.80000     10.00000 5713.2  0.800  1   6574  0.662 1168.917847 2032.648438 1274.163452
  0.66395   1.30977   2.19385      3.20000     10.00000 4980.1  0.457  1   5889  1.046 1115.863037 2062.267090 1252.933350
  0.66395   1.30977   2.19385      3.60000     10.00000 3889.9  0.457  1   4380  1.815 1074.404053 2144.345215 1247.730835
  0.04624   2.50558   1.93981      4.00000     10.00000 4654.6  0.286  1   2907  0.997 1100.719238 2189.817871 1258.301636
  0.04624   2.50558   1.93981      4.40000     10.00000 4697.7  0.286  1   7979  1.347 1142.118896 2182.768799 1270.651733
  3.98628   0.72105   0.79291      4.80000     10.00000 5201.4  0.543  1  12536  1.591 1197.807739 2188.930420 1270.674438
  3.98740   0.72759   0.79230      5.20000     10.00000 5174.9  0.429  1   9899  1.588 1240.786133 2186.102051 1275.351196
  3.99196   0.73110   0.78905      5.60000     10.00000 5556.9  0.600  1   9366  1.432 1261.154541 2169.524414 1279.350586
  3.71564   2.41583   2.68888      6.00000     10.00000 5835.4  0.114  1   8364  1.776 1269.173584 2138.866211 1286.708008
  3.99732   0.72768   0.78439      6.40000     10.00000 5755.7  0.486  1   7367  1.588 1272.205566 2098.518311 1283.419312
  0.69961   1.68373   1.67268      6.80000     10.00000 5968.8  0.429  1   7175  1.678 1268.121826 2076.924316 1283.667603
  3.85266   1.47394   3.56138      7.20000     10.00000 7067.8  0.371  1   6864  1.087 1258.697266 2042.186768 1278.173218
  0.70582   1.67977   1.67130      7.60000     10.00000 8126.8  0.457  1   6899  1.087 1243.680542 2035.839355 1275.981201
  3.83583   1.45473   3.56528      8.00000     10.00000 8416.3  0.457  1   7293  1.057 1252.179321 2035.734741 1276.581299
  3.83230   1.45903   3.56490      8.40000     10.00000 8911.2  0.429  1   7150  0.849 1266.894043 2027.125488 1285.331421
  0.69907   1.68256   1.67291      8.80000     10.00000 8992.6  0.429  1   7464  1.061 1281.124390 2021.980713 1290.608643
  0.69925   1.68920   1.67795      9.20000     10.00000 9153.0  0.400  1   7672  1.164 1296.542847 2013.966064 1290.599854
  3.83780   1.45064   3.56279      9.60000     10.00000 9336.8  0.429  1   7709  1.167 1315.323242 2032.521240 1291.625610
  0.69796   1.68557   1.67293     10.00000     10.00000 9405.9  0.714  1   8289  0.974 1342.858032 2018.095093 1290.264893
  0.70460   1.68334   1.67347     10.40000     10.00000 9682.1  0.743  1   8418  0.834 1357.360596 1995.898560 1294.597290
  0.70493   1.68423   1.67264     10.80000     10.00000 9790.4  0.800  1  10513  0.773 1371.020142 1972.486328 1294.700439
  0.70265   1.68549   1.67347     11.20000     10.00000 9663.4  0.800  1  11877  0.640 1388.623657 1973.510986 1307.536987
  3.83574   1.45243   3.56448     11.60000     10.00000 9047.6  0.800  1  14609  0.843 1397.286987 1995.886597 1315.576050
  3.83380   1.45877   3.57010     12.00000     10.00000 7563.9  0.800  1  18032  0.560 1407.824463 2017.326050 1330.381592
  0.65629   1.31268   2.20094      0.00000     10.40000 4034.2  0.171  1   2031  1.493 1202.608032 2032.998413 1273.207520
  0.65869   1.31273   2.20262      0.40000     10.40000 5173.3  0.257  1   5399  1.288 1178.463867 2008.095703 1265.334473
  0.67373   1.30554   2.19954      0.80000     10.40000 5859.6  0.286  1   8355  1.159 1206.483887 1999.849487 1263.788086
  0.66832   1.29858   2.19705      1.20000     10.40000 6034.0  0.800  1   7391  0.753 1225.915527 2030.552734 1268.184448
  0.66743   1.29347   2.19381      1.60000     10.40000 6269.7  0.857  1   7623  0.606 1216.434448 2044.838989 1271.290283
  0.66289   1.30433   2.19188      2.00000     10.40000 6335.9  0.800  1   7291  0.734 1209.025269 2044.284668 1275.408325
  0.66662   1.30451   2.19315      2.40000     10.40000 6420.7  0.857  1   8090  0.728 1194.954346 2022.450806 1275.741455
  0.66152   1.30444   2.19486      2.80000     10.40000 5933.4  0.657  1  11729  0.825 1184.717529 2040.278687 1270.627563
  0.65616   1.30310   2.19387      3.20000     10.40000 5373.1  0.143  1  14026  1.457 1186.585815 2076.159668 1262.113281
  3.99472   0.72950   0.78916      3.60000     10.40000 5043.4  0.200  1  11764  1.562 1218.610840 2155.868896 1272.846191
  3.97242   0.72029   0.80408      4.00000     10.40000 5322.0  0.143  1   8174  1.405 1268.443237 2165.075928 1288.415161
  3.98790   0.72878   0.79488      4.40000     10.40000 5832.1  0.286  1   7949  1.321 1296.504028 2176.190918 1291.639526
  3.98628   0.72105   0.79291      4.80000     10.40000 6300.9  0.543  1   8131  0.894 1323.769409 2176.119873 1286.311890
  3.98740   0.72759   0.79230      5.20000     10.40000 6665.5  0.429  1   7784  1.194 1335.839966 2191.907471 1284.931152
  3.99196   0.73110   0.78905      5.60000     10.40000 7111.4  0.600  1   8306  0.941 1338.626709 2176.876221 1286.868896
  3.98820   0.72482   0.79121      6.00000     10.40000 7252.8  0.114  1   8136  1.412 1328.056030 2160.457031 1291.795776
  3.99732   0.72768   0.78439      6.40000     10.40000 7178.4  0.486  1   7360  1.179 1316.163086 2138.250977 1288.475342
  3.99415   0.72885   0.78749      6.80000     10.40000 6987.7  0.143  1   7220  1.469 1300.663452 2121.938721 1287.762573
  3.85266   1.47394   3.56138      7.20000     10.40000 6842.8  0.371  1   6995  1.837 1283.167725 2093.521240 1279.173340
  0.70650   1.67198   1.67873      7.60000     10.40000 6752.3  0.114  1   6866  1.365 1258.140747 2072.888184 1276.635742
  0.71220   1.66737   1.67206      8.00000     10.40000 7551.5  0.714  1   5953  0.742 1247.958496 2065.156494 1280.071777
  3.84765   1.46503   3.56096      8.40000     10.40000 8362.1  0.429  1   5876  1.010 1256.344116 2061.730469 1286.684814
  3.84258   1.46240   3.56143      8.80000     10.40000 8829.4  0.400  1   8977  1.025 1281.276855 2036.658203 1285.995361
  0.69618   1.68661   1.67227      9.20000     10.40000 9273.7  0.429  1   8478  1.272 1306.203125 2021.354736 1289.589478
  3.83475   1.45329   3.56366      9.60000     10.40000 9726.3  0.429  1   9018  1.304 1325.188110 2004.967773 1291.415161
  0.70133   1.68312   1.67354     10.00000     10.40000 9941.2  0.714  1   8192  0.970 1342.151611 2007.328125 1296.249390
  0.70134   1.68311   1.67353     10.40000     10.40000 9876.0  0.714  1   9782  0.970 1343.372192 1990.216431 1293.889648
  3.84401   1.45974   3.56268     10.80000     10.40000 9798.8  0.771  1   8991  0.969 1337.626343 1976.065186 1294.168213
  0.69525   1.68515   1.67212     11.20000     10.40000 9419.6  0.771  1   8836  0.909 1335.936157 1968.287842 1299.250488
  3.84198   1.45400   3.56236     11.60000     10.40000 9033.2  0.829  1  11680  0.999 1332.312012 1971.476318 1305.164917
  0.69375   1.68097   1.66925     12.00000     10.40000 7298.6  0.743  1  14334  0.499 1328.788452 1978.436646 1304.808960
  0.65629   1.31268   2.20094      0.00000     10.80000 3108.3  0.171  1   7481  1.352 1164.237061 2052.671875 1277.961914
  0.65409   1.30752   2.19841      0.40000     10.80000 4360.1  0.600  1   5436  1.194 1111.186035 2014.240234 1264.981567
  0.65409   1.30752   2.19841      0.80000     10.80000 5396.1  0.600  1   5626  0.927 1120.591431 1996.571533 1254.287231
  0.65809   1.30751   2.19579      1.20000     10.80000 5857.6  0.714  1   7183  0.718 1157.355347 2001.236328 1259.713501
  0.67286   1.29423   2.19676      1.60000     10.80000 6210.3  0.286  1   8385  0.982 1179.959106 2024.465454 1265.590210
  0.66809   1.30384   2.20152      2.00000     10.80000 6231.0  0.543  1   9742  1.059 1217.269775 2031.636475 1272.366943
  0.66508   1.30130   2.19391      2.40000     10.80000 6276.9  0.857  1  10974  0.661 1248.547363 2043.907227 1276.123047
  0.65349   1.30759   2.19398      2.80000     10.80000 5887.2  0.771  1  11605  0.830 1286.098877 2073.053223 1276.816772
  0.65349   1.30759   2.19398      3.20000     10.80000 6029.3  0.771  1  10498  2.033 1311.012695 2099.204590 1275.854004
  3.99472   0.72950   0.78916      3.60000     10.80000 6280.1  0.200  1   9273  1.246 1337.727905 2140.235107 1281.323730
  3.99956   0.72709   0.78333      4.00000     10.80000 6816.4  0.257  1   8029  1.363 1355.998779 2151.366455 1289.326904
  3.99598   0.72729   0.78608      4.40000     10.80000 6998.1  0.257  1   8063  1.271 1357.333374 2167.656006 1290.107666
  3.99312   0.72221   0.78834      4.80000     10.80000 7233.1  0.686  1   8458  0.873 1359.939575 2167.557861 1288.510254
  3.99269   0.72509   0.78807      5.20000     10.80000 7466.1  0.486  1   7980  1.180 1355.876221 2175.791016 1289.833984
  3.99560   0.73163   0.78404      5.60000     10.80000 7763.4  0.543  1   8454  1.095 1355.295044 2161.074463 1293.469604
  3.99801   0.72697   2.87801      6.00000     10.80000 8010.0  0.571  1   7815  1.423 1346.579712 2161.503906 1293.617798
  0.84034   2.41086   2.35266      6.40000     10.80000 8118.0  0.486  1   8307  1.445 1338.773926 2151.864014 1287.183105
  3.99747   0.73552   2.87895      6.80000     10.80000 7904.5  0.171  1   8074  1.439 1327.949585 2148.076904 1286.635010
  3.70786   2.41447   2.68503      7.20000     10.80000 7437.7  0.171  1   7547  1.430 1311.320068 2132.071777 1282.164063
  4.00217   0.72680   0.77939      7.60000     10.80000 7064.3  0.257  1   8664  1.571 1289.356323 2120.842773 1283.564331
  0.71220   1.66737   1.67206      8.00000     10.80000 7148.9  0.714  1   8723  1.803 1273.248901 2101.603516 1287.179810
  0.70884   1.67265   1.67217      8.40000     10.80000 7136.1  0.771  1   8655  2.012 1269.107178 2087.843018 1289.834839
  0.70884   1.67265   1.67217      8.80000     10.80000 7675.3  0.771  1   7963  0.596 1286.829712 2049.234131 1284.335693
  3.83784   1.44746   3.56039      9.20000     10.80000 8895.4  0.429  1   7883  1.270 1314.084229 2033.609985 1283.067383
  0.69449   1.69397   1.67422      9.60000     10.80000 9272.8  0.429  1   9657  1.222 1336.611084 2015.577881 1284.449951
  0.70062   1.69122   1.67515     10.00000     10.80000 9558.6  0.429  1   9841  1.086 1351.234375 2025.715576 1289.850708
  0.70063   1.69122   1.67514     10.40000     10.80000 9359.2  0.429  1   8456  1.088 1336.572510 2018.443848 1287.337769
  3.83850   1.45432   3.56391     10.80000     10.80000 9140.4  0.429  1   8056  1.145 1306.605469 1991.509399 1286.981079
  3.83851   1.45432   3.56392     11.20000     10.80000 8404.9  0.429  1   7255  1.146 1264.018799 1973.615234 1284.660400
  3.83836   1.45744   3.56628     11.60000     10.80000 8300.5  0.429  1   5252  1.007 1239.911255 1958.143799 1287.380249
  3.83609   1.46222   3.56701     12.00000     10.80000 7093.9  0.229  1   6760  1.052 1267.215088 1989.967773 1295.362427
  5.08952   0.32958   5.34040      0.00000     11.20000 2865.5  0.657  1   7497  1.782 1168.895874 2072.404785 1280.937256
  5.07592   0.33459   5.35712      0.40000     11.20000 3753.3  0.543  1   8284  1.770 1110.253662 2046.876587 1270.256592
  0.65409   1.30752   2.19841      0.80000     11.20000 4747.6  0.600  1   5799  1.576 1100.943848 2011.706177 1256.785400
  0.66630   1.30770   2.20413      1.20000     11.20000 5097.1  0.200  1   4359  1.390 1120.621094 2020.812378 1259.185547
  0.67865   1.29578   2.20150      1.60000     11.20000 5486.8  0.286  1   6758  1.244 1160.781006 2032.027710 1261.903687
  0.64956   1.30827   2.19834      2.00000     11.20000 5579.1  0.743  1   5638  1.010 1228.734497 2049.146973 1265.311401
  0.64898   1.31023   2.19941      2.40000     11.20000 5881.5  0.514  1  11993  1.334 1285.576416 2064.121338 1271.880127
  0.65349   1.30759   2.19398      2.80000     11.20000 6094.1  0.771  1  10788  1.891 1324.156372 2091.775391 1273.778442
  3.98646   0.72899   0.79612      3.20000     11.20000 6719.1  0.343  1   9804  1.158 1344.592529 2111.545166 1280.006470
  3.98550   0.71390   0.79113      3.60000     11.20000 7259.6  0.200  1   9620  1.322 1356.609009 2128.894287 1284.411499
  3.98792   0.73219   0.78628      4.00000     11.20000 7545.3  0.114  1   8830  1.504 1363.112671 2136.808350 1287.159058
  3.99863   0.73691   0.78123      4.40000     11.20000 7776.3  0.229  1   8500  1.492 1354.661377 2137.969727 1284.265015
  4.00156   0.72489   0.78103      4.80000     11.20000 7838.3  0.286  1   8927  1.288 1346.435425 2144.652100 1288.455933
  4.00162   0.72157   2.87432      5.20000     11.20000 8035.7  0.514  1   8335  1.073 1339.367920 2143.872803 1292.155273
  3.99732   0.72064   2.87424      5.60000     11.20000 8083.2  0.743  1   8677  1.507 1342.219482 2143.874023 1295.987793
  3.99801   0.72697   2.87801      6.00000     11.20000 8292.2  0.571  1   8291  1.157 1343.018677 2160.948730 1288.901489
  0.84034   2.41086   2.35266      6.40000     11.20000 8351.6  0.486  1   8555  1.205 1346.390015 2165.085938 1284.659058
  0.86279   2.41002   2.36053      6.80000     11.20000 8398.8  0.171  1   8559  1.480 1350.732788 2155.952393 1284.567749
  3.99800   0.72700   2.87806      7.20000     11.20000 8308.0  0.543  1   8824  1.166 1348.078125 2141.252686 1287.225830
  4.00217   0.72680   0.77939      7.60000     11.20000 8199.7  0.257  1   9624  1.276 1345.251221 2135.578613 1291.392944
  3.70819   2.41368   2.68161      8.00000     11.20000 7636.9  0.143  1   9671  1.325 1328.444702 2128.730957 1296.949097
  3.99996   0.72780   0.78269      8.40000     11.20000 7613.3  0.171  1   9223  1.502 1326.803101 2108.525146 1295.690552
  0.70884   1.67265   1.67217      8.80000     11.20000 6972.5  0.771  1   8619  1.605 1329.138306 2071.533936 1287.057129
  0.70698   1.69156   1.67907      9.20000     11.20000 7196.8  0.457  1   8994  0.983 1349.621338 2042.751221 1283.876709
  0.69159   1.70230   1.68141      9.60000     11.20000 7906.8  0.229  1   8836  1.263 1368.364136 2014.007324 1283.457153
  0.70062   1.69122   1.67515     10.00000     11.20000 8250.5  0.429  1   8560  1.592 1370.139282 2012.195435 1291.655396
  0.70063   1.69122   1.67514     10.40000     11.20000 7221.3  0.429  1   8470  1.564 1350.292847 2015.411621 1289.691406
  3.83850   1.45432   3.56391     10.80000     11.20000 6587.9  0.429  1   9859  1.498 1281.716675 2015.646240 1284.484375
  3.83851   1.45432   3.56392     11.20000     11.20000 6074.8  0.429  1   9186  2.090 1164.165039 2014.657715 1260.890869
  3.83836   1.45744   3.56628     11.60000     11.20000 5920.6  0.429  1   3728  1.478 1041.354980 1992.380127 1243.327881
  3.83609   1.46222   3.56701     12.00000     11.20000 5266.6  0.229  1   5174  1.594 1087.416260 2014.091797 1255.009033
  5.08952   0.32958   5.34040      0.00000     11.60000 4258.6  0.657  1   4139  1.203 1245.358276 2090.036621 1295.315308
  5.07592   0.33459   5.35712      0.40000     11.60000 5329.1  0.543  1   7176  1.166 1215.180420 2072.795654 1283.114380
  5.05470   0.32948   5.36875      0.80000     11.60000 5922.4  0.171  1  13214  1.365 1196.332520 2053.270020 1276.307129
  1.89574   2.80207   6.13312      1.20000     11.60000 5358.6  0.343  1  11058  1.917 1183.374390 2051.332520 1272.864990
  0.67865   1.29578   2.20150      1.60000     11.60000 4731.0  0.286  1   6279  1.933 1203.264160 2068.316406 1276.175049
  1.79016   1.76488   1.91495      2.00000     11.60000 5391.7  0.114  1   5596  1.701 1268.318359 2074.356445 1271.542969
  0.86062   2.41313   4.45180      2.40000     11.60000 6338.9  0.314  1  10967  1.254 1315.911011 2081.873779 1272.874512
  3.99033   0.72342   0.79227      2.80000     11.60000 7109.1  0.343  1   9311  0.967 1336.432373 2103.498779 1273.500366
  3.99282   0.73101   0.78699      3.20000     11.60000 7690.4  0.571  1   8698  0.965 1342.420044 2128.372070 1280.610229
  3.98871   0.71471   2.87733      3.60000     11.60000 7960.0  0.114  1   8651  1.450 1339.714233 2126.468506 1281.988037
  4.00249   0.71407   0.77552      4.00000     11.60000 8098.6  0.200  1   8852  1.588 1339.821655 2130.132568 1282.865967
  4.00247   0.71383   0.77825      4.40000     11.60000 8221.6  0.229  1   8315  1.650 1333.982056 2107.225586 1281.507568
  4.00247   0.71383   0.77825      4.80000     11.60000 8162.1  0.229  1   8675  1.110 1329.530640 2128.925049 1287.439331
  0.86123   2.42455   2.36429      5.20000     11.60000 8204.3  0.800  1   8790  0.807 1329.700684 2124.131104 1288.754639
  3.99732   0.72064   2.87424      5.60000     11.60000 8375.6  0.743  1   8403  1.045 1338.533691 2135.008301 1292.387329
  0.86097   2.42681   2.36335      6.00000     11.60000 8394.1  0.743  1   8754  0.945 1348.094727 2146.633057 1287.128418
  0.85194   2.43156   2.35798      6.40000     11.60000 8427.6  0.629  1   9354  0.842 1358.073242 2155.610352 1289.959106
  0.85196   2.42980   2.35566      6.80000     11.60000 8390.0  0.629  1   9522  0.819 1358.176758 2169.132568 1293.057983
  0.85303   2.42969   2.35747      7.20000     11.60000 8507.6  0.200  1   8963  1.170 1359.105225 2169.977539 1297.536621
  4.00280   0.73031   2.87382      7.60000     11.60000 8565.1  0.229  1   8835  1.443 1360.701172 2174.222412 1298.073730
  4.00147   0.72630   0.77914      8.00000     11.60000 8642.6  0.714  1   9119  0.950 1367.450562 2170.263672 1297.749878
  3.99891   0.73115   0.78250      8.40000     11.60000 8484.0  0.286  1   9358  1.193 1360.697754 2134.515625 1296.438843
  3.99891   0.73115   0.78250      8.80000     11.60000 7400.1  0.286  1   9240  1.459 1361.184326 2098.667969 1288.503784
  0.70698   1.69156   1.67907      9.20000     11.60000 6996.9  0.457  1   8783  1.835 1369.346680 2056.196533 1281.193237
  3.86871   0.67918   5.46112      9.60000     11.60000 8274.8  0.314  1   7906  1.247 1385.535767 2045.597168 1282.106812
  0.72423   2.46847   3.96076     10.00000     11.60000 9240.7  0.286  1   8177  1.105 1394.271973 2044.990234 1290.094849
  0.72455   2.47672   1.87063     10.40000     11.60000 8348.1  0.286  1   9348  1.109 1390.431885 2040.197998 1297.565674
  0.73533   2.47603   1.87278     10.80000     11.60000 7900.1  0.371  1  10069  1.076 1351.139038 2036.779419 1290.137573
  0.72303   2.47538   1.86616     11.20000     11.60000 6865.0  0.343  1  14374  1.165 1263.707397 2037.934082 1272.192627
  0.72145   2.47498   1.86471     11.60000     11.60000 4863.2  0.143  1   7624  1.428 1084.167114 2064.186035 1234.591064
  3.86934   0.67102   3.36549     12.00000     11.60000 4856.2  0.486  1   3516  2.122 1031.935547 2070.504395 1237.739258
  5.10690   0.33370   5.33080      0.00000     12.00000 4427.9  0.457  1   9535  1.256 1277.880737 2091.081543 1299.360474
  5.07591   0.33460   5.35713      0.40000     12.00000 5522.1  0.657  1   7482  0.914 1270.024902 2074.036377 1290.088379
  5.04219   0.35381   5.38695      0.80000     12.00000 5476.0  0.429  1   9738  0.729 1276.946655 2051.125488 1294.251343
  1.89574   2.80207   6.13312      1.20000     12.00000 4481.2  0.343  1  11248  1.115 1257.473145 2045.491943 1293.327148
  1.89574   2.80207   6.13312      1.60000     12.00000 4115.8  0.343  1  12940  1.845 1260.901611 2071.969727 1293.978638
  0.85318   2.41368   4.44948      2.00000     12.00000 5360.7  0.257  1   8808  1.151 1306.552490 2080.998535 1283.162720
  0.86057   2.40964   4.45565      2.40000     12.00000 6451.8  0.514  1   8137  1.213 1336.650024 2083.389404 1280.417847
  3.99494   0.72806   0.78702      2.80000     12.00000 7080.2  0.429  1   7770  1.128 1341.632690 2101.886475 1279.874023
  3.97903   0.72329   0.79567      3.20000     12.00000 7330.4  0.343  1   8179  1.194 1344.439087 2127.385254 1286.654907
  3.69633   2.41883   2.67769      3.60000     12.00000 7552.3  0.171  1   8428  1.762 1334.195557 2124.068604 1289.212036
  4.00249   0.71407   0.77552      4.00000     12.00000 7503.1  0.200  1   8299  1.286 1338.595581 2124.015137 1289.770264
  4.00247   0.71383   0.77825      4.40000     12.00000 7638.1  0.286  1   7880  1.650 1336.242798 2092.307373 1287.827759
  4.00247   0.71383   0.77825      4.80000     12.00000 7682.4  0.286  1   8423  1.209 1339.781128 2116.311035 1292.908081
  0.86098   2.42683   2.36338      5.20000     12.00000 7668.2  0.743  1   9206  0.831 1339.663818 2114.274170 1292.705566
  4.00263   0.71433   0.77796      5.60000     12.00000 7822.8  0.743  1   8962  0.949 1352.288208 2130.584717 1296.420410
  4.00263   0.71433   0.77797      6.00000     12.00000 7784.2  0.714  1   8722  0.677 1360.228760 2134.269287 1290.839355
  3.99009   0.70835   2.87992      6.40000     12.00000 7807.4  0.543  1   8672  0.919 1371.494507 2145.102783 1297.143066
  0.86105   2.42518   2.36136      6.80000     12.00000 7741.3  0.800  1   8888  0.680 1366.736816 2160.681641 1299.739258
  0.85242   2.41527   2.35906      7.20000     12.00000 7898.6  0.314  1   8727  1.265 1368.516724 2166.944092 1304.439087
  4.00104   0.72858   2.87372      7.60000     12.00000 7953.0  0.743  1   8072  1.098 1370.606689 2168.837158 1300.682739
  3.99544   0.72155   0.78340      8.00000     12.00000 8087.8  0.600  1   8581  0.916 1382.028320 2178.513916 1299.288696
  3.99200   0.72610   0.78678      8.40000     12.00000 8064.9  0.571  1   8375  0.911 1381.631592 2138.322998 1299.905640
  3.99200   0.72610   0.78678      8.80000     12.00000 7108.6  0.571  1   8028  1.345 1385.173096 2105.880371 1296.392700
  0.72572   2.46659   3.96875      9.20000     12.00000 6726.4  0.314  1   8859  1.921 1387.562866 2052.652832 1293.047729
  0.72572   2.46659   3.96875      9.60000     12.00000 8381.9  0.314  1   7467  1.181 1398.632935 2050.230713 1291.792847
  0.71272   2.47342   3.96401     10.00000     12.00000 9150.3  0.314  1   8143  1.306 1411.477417 2046.236328 1298.154541
  3.86033   0.66223   3.36748     10.40000     12.00000 8325.1  0.371  1   9072  1.008 1420.121704 2047.027100 1304.950439
  3.86830   0.66059   3.36728     10.80000     12.00000 7881.8  0.343  1   9864  1.098 1393.448364 2041.709106 1298.877930
  3.87702   0.66585   3.36346     11.20000     12.00000 6952.7  0.286  1  12058  1.008 1331.074463 2039.870483 1288.291992
  3.87187   0.66679   3.37094     11.60000     12.00000 4943.1  0.600  1  16416  1.154 1175.684814 2055.459473 1252.889160
  3.86934   0.67102   3.36549     12.00000     12.00000 3742.4  0.486  1   2399  1.101 1087.317261 2064.423828 1250.879272
